" File: Users\student\Documents\SpectraWiz data\
" RAD->  Wave:601.07nm  Pix:754  Val:  0.007  Time:575ms  Avg:1  Sm:4  Sg:0  Tc:off  SNAP  Xt:1  Ch:1  Wr:400-700 Xtrig
 234.00  0.0000E+000
 234.50  0.0000E+000
 235.00  0.0000E+000
 235.50  0.0000E+000
 236.00  0.0000E+000
 236.50  0.0000E+000
 237.00  0.0000E+000
 237.50  0.0000E+000
 238.00  0.0000E+000
 238.50  0.0000E+000
 239.00  0.0000E+000
 239.50  0.0000E+000
 240.00  0.0000E+000
 240.50  0.0000E+000
 241.00  0.0000E+000
 241.50  0.0000E+000
 242.00  0.0000E+000
 242.50  0.0000E+000
 243.00  0.0000E+000
 243.50  0.0000E+000
 244.00  0.0000E+000
 244.50  0.0000E+000
 245.00  0.0000E+000
 245.50  0.0000E+000
 246.00  0.0000E+000
 246.50  0.0000E+000
 247.00  0.0000E+000
 247.50  0.0000E+000
 248.00  0.0000E+000
 248.50  0.0000E+000
 249.00  0.0000E+000
 249.50  0.0000E+000
 250.00  0.0000E+000
 250.50  0.0000E+000
 251.00  0.0000E+000
 251.50  0.0000E+000
 252.00  0.0000E+000
 252.50  0.0000E+000
 253.00  0.0000E+000
 253.50  0.0000E+000
 254.00  0.0000E+000
 254.50  0.0000E+000
 255.00  0.0000E+000
 255.50  0.0000E+000
 256.00  0.0000E+000
 256.50  0.0000E+000
 257.00  0.0000E+000
 257.50  0.0000E+000
 258.00  0.0000E+000
 258.50  0.0000E+000
 259.00  0.0000E+000
 259.50  0.0000E+000
 260.00  0.0000E+000
 260.50  0.0000E+000
 261.00  0.0000E+000
 261.50  0.0000E+000
 262.00  0.0000E+000
 262.50  0.0000E+000
 263.00  0.0000E+000
 263.50  0.0000E+000
 264.00  0.0000E+000
 264.50  0.0000E+000
 265.00  0.0000E+000
 265.50  0.0000E+000
 266.00  0.0000E+000
 266.50  0.0000E+000
 267.00  0.0000E+000
 267.50  0.0000E+000
 268.00  0.0000E+000
 268.50  0.0000E+000
 269.00  0.0000E+000
 269.50  0.0000E+000
 270.00  0.0000E+000
 270.50  0.0000E+000
 271.00  0.0000E+000
 271.50  0.0000E+000
 272.00  0.0000E+000
 272.50  0.0000E+000
 273.00  0.0000E+000
 273.50  0.0000E+000
 274.00  0.0000E+000
 274.50  0.0000E+000
 275.00  0.0000E+000
 275.50  0.0000E+000
 276.00  0.0000E+000
 276.50  0.0000E+000
 277.00  0.0000E+000
 277.50  0.0000E+000
 278.00  0.0000E+000
 278.50  0.0000E+000
 279.00  0.0000E+000
 279.50  0.0000E+000
 280.00  0.0000E+000
 280.50  0.0000E+000
 281.00  0.0000E+000
 281.50  0.0000E+000
 282.00  0.0000E+000
 282.50  0.0000E+000
 283.00  0.0000E+000
 283.50  0.0000E+000
 284.00  0.0000E+000
 284.50  0.0000E+000
 285.00  0.0000E+000
 285.50  0.0000E+000
 286.00  0.0000E+000
 286.50  0.0000E+000
 287.00  0.0000E+000
 287.50  0.0000E+000
 288.00  0.0000E+000
 288.50  0.0000E+000
 289.00  0.0000E+000
 289.50  0.0000E+000
 290.00  0.0000E+000
 290.50  0.0000E+000
 291.00  0.0000E+000
 291.50  0.0000E+000
 292.00  0.0000E+000
 292.50  0.0000E+000
 293.00  0.0000E+000
 293.50  0.0000E+000
 294.00  0.0000E+000
 294.50  0.0000E+000
 295.00  0.0000E+000
 295.50  0.0000E+000
 296.00  0.0000E+000
 296.50  0.0000E+000
 297.00  0.0000E+000
 297.50  0.0000E+000
 298.00  0.0000E+000
 298.50  0.0000E+000
 299.00  0.0000E+000
 299.50  0.0000E+000
 300.00  0.0000E+000
 300.50  0.0000E+000
 301.00  0.0000E+000
 301.50  0.0000E+000
 302.00  0.0000E+000
 302.50  0.0000E+000
 303.00  0.0000E+000
 303.50  0.0000E+000
 304.00  0.0000E+000
 304.50  0.0000E+000
 305.00  0.0000E+000
 305.50  0.0000E+000
 306.00  0.0000E+000
 306.50  0.0000E+000
 307.00  0.0000E+000
 307.50  0.0000E+000
 308.00  0.0000E+000
 308.50  0.0000E+000
 309.00  0.0000E+000
 309.50  0.0000E+000
 310.00  0.0000E+000
 310.50  0.0000E+000
 311.00  0.0000E+000
 311.50  0.0000E+000
 312.00  0.0000E+000
 312.50  0.0000E+000
 313.00  0.0000E+000
 313.50  0.0000E+000
 314.00  0.0000E+000
 314.50  0.0000E+000
 315.00  0.0000E+000
 315.50  0.0000E+000
 316.00  0.0000E+000
 316.50  0.0000E+000
 317.00  0.0000E+000
 317.50  0.0000E+000
 318.00  0.0000E+000
 318.50  0.0000E+000
 319.00  0.0000E+000
 319.50  0.0000E+000
 320.00  0.0000E+000
 320.50  0.0000E+000
 321.00  0.0000E+000
 321.50  0.0000E+000
 322.00  0.0000E+000
 322.50  0.0000E+000
 323.00  0.0000E+000
 323.50  0.0000E+000
 324.00  0.0000E+000
 324.50  0.0000E+000
 325.00  0.0000E+000
 325.50  0.0000E+000
 326.00  0.0000E+000
 326.50  0.0000E+000
 327.00  0.0000E+000
 327.50  0.0000E+000
 328.00  0.0000E+000
 328.50  0.0000E+000
 329.00  0.0000E+000
 329.50  0.0000E+000
 330.00  0.0000E+000
 330.50  0.0000E+000
 331.00  0.0000E+000
 331.50  0.0000E+000
 332.00  0.0000E+000
 332.50  0.0000E+000
 333.00  0.0000E+000
 333.50  0.0000E+000
 334.00  0.0000E+000
 334.50  0.0000E+000
 335.00  0.0000E+000
 335.50  0.0000E+000
 336.00  0.0000E+000
 336.50  0.0000E+000
 337.00  0.0000E+000
 337.50  0.0000E+000
 338.00  0.0000E+000
 338.50  0.0000E+000
 339.00  0.0000E+000
 339.50  0.0000E+000
 340.00  0.0000E+000
 340.50  0.0000E+000
 341.00  0.0000E+000
 341.50  0.0000E+000
 342.00  0.0000E+000
 342.50  0.0000E+000
 343.00  0.0000E+000
 343.50  0.0000E+000
 344.00  0.0000E+000
 344.50  0.0000E+000
 345.00  0.0000E+000
 345.50  0.0000E+000
 346.00  0.0000E+000
 346.50  0.0000E+000
 347.00  0.0000E+000
 347.50  0.0000E+000
 348.00  0.0000E+000
 348.50  0.0000E+000
 349.00  0.0000E+000
 349.50  0.0000E+000
 350.00  0.0000E+000
 350.50  0.0000E+000
 351.00  0.0000E+000
 351.50  0.0000E+000
 352.00  0.0000E+000
 352.50  0.0000E+000
 353.00  0.0000E+000
 353.50  0.0000E+000
 354.00  0.0000E+000
 354.50  0.0000E+000
 355.00  0.0000E+000
 355.50  0.0000E+000
 356.00  0.0000E+000
 356.50  0.0000E+000
 357.00  0.0000E+000
 357.50  0.0000E+000
 358.00  0.0000E+000
 358.50  0.0000E+000
 359.00  0.0000E+000
 359.50  0.0000E+000
 360.00  0.0000E+000
 360.50  0.0000E+000
 361.00  0.0000E+000
 361.50  0.0000E+000
 362.00  0.0000E+000
 362.50  0.0000E+000
 363.00  1.9025E-006
 363.50  1.4519E-005
 364.00  2.6027E-005
 364.50  3.2345E-005
 365.00  3.7428E-005
 365.50  4.6301E-005
 366.00  5.8381E-005
 366.50  7.1356E-005
 367.00  8.1262E-005
 367.50  8.7837E-005
 368.00  9.3929E-005
 368.50  9.6493E-005
 369.00  9.6895E-005
 369.50  1.0041E-004
 370.00  1.0502E-004
 370.50  1.0915E-004
 371.00  1.1368E-004
 371.50  1.1239E-004
 372.00  1.1100E-004
 372.50  1.0688E-004
 373.00  1.0008E-004
 373.50  9.2196E-005
 374.00  8.7080E-005
 374.50  8.1295E-005
 375.00  7.8179E-005
 375.50  7.4862E-005
 376.00  7.4681E-005
 376.50  8.1308E-005
 377.00  9.3294E-005
 377.50  1.0415E-004
 378.00  1.1397E-004
 378.50  1.2472E-004
 379.00  1.3490E-004
 379.50  1.3741E-004
 380.00  1.3551E-004
 380.50  1.3363E-004
 381.00  1.3908E-004
 381.50  1.5379E-004
 382.00  1.7053E-004
 382.50  1.8563E-004
 383.00  1.9878E-004
 383.50  2.1300E-004
 384.00  2.2691E-004
 384.50  2.3994E-004
 385.00  2.5309E-004
 385.50  2.6694E-004
 386.00  2.7708E-004
 386.50  2.8554E-004
 387.00  2.9417E-004
 387.50  3.0418E-004
 388.00  3.1612E-004
 388.50  3.2781E-004
 389.00  3.3765E-004
 389.50  3.4616E-004
 390.00  3.5404E-004
 390.50  3.5917E-004
 391.00  3.6278E-004
 391.50  3.6489E-004
 392.00  3.6942E-004
 392.50  3.7674E-004
 393.00  3.8170E-004
 393.50  3.8300E-004
 394.00  3.8282E-004
 394.50  3.8206E-004
 395.00  3.7818E-004
 395.50  3.7244E-004
 396.00  3.7320E-004
 396.50  3.7770E-004
 397.00  3.8323E-004
 397.50  3.8748E-004
 398.00  3.8930E-004
 398.50  3.8862E-004
 399.00  3.8776E-004
 399.50  3.8957E-004
 400.00  3.9260E-004
 400.50  3.9833E-004
 401.00  4.0483E-004
 401.50  4.1359E-004
 402.00  4.2528E-004
 402.50  4.3965E-004
 403.00  4.5497E-004
 403.50  4.7084E-004
 404.00  4.8502E-004
 404.50  4.9721E-004
 405.00  5.0856E-004
 405.50  5.2105E-004
 406.00  5.3506E-004
 406.50  5.5463E-004
 407.00  5.7720E-004
 407.50  6.0259E-004
 408.00  6.2886E-004
 408.50  6.5180E-004
 409.00  6.7408E-004
 409.50  6.9511E-004
 410.00  7.1521E-004
 410.50  7.3703E-004
 411.00  7.5876E-004
 411.50  7.8311E-004
 412.00  8.0716E-004
 412.50  8.2462E-004
 413.00  8.4245E-004
 413.50  8.6150E-004
 414.00  8.8059E-004
 414.50  8.9733E-004
 415.00  9.1420E-004
 415.50  9.2903E-004
 416.00  9.3975E-004
 416.50  9.4908E-004
 417.00  9.5492E-004
 417.50  9.6182E-004
 418.00  9.6948E-004
 418.50  9.7849E-004
 419.00  9.8430E-004
 419.50  9.9200E-004
 420.00  9.9796E-004
 420.50  1.0054E-003
 421.00  1.0149E-003
 421.50  1.0305E-003
 422.00  1.0453E-003
 422.50  1.0606E-003
 423.00  1.0696E-003
 423.50  1.0767E-003
 424.00  1.0767E-003
 424.50  1.0754E-003
 425.00  1.0738E-003
 425.50  1.0718E-003
 426.00  1.0745E-003
 426.50  1.0810E-003
 427.00  1.0826E-003
 427.50  1.0819E-003
 428.00  1.0835E-003
 428.50  1.0892E-003
 429.00  1.0999E-003
 429.50  1.1093E-003
 430.00  1.1180E-003
 430.50  1.1236E-003
 431.00  1.1282E-003
 431.50  1.1346E-003
 432.00  1.1353E-003
 432.50  1.1347E-003
 433.00  1.1377E-003
 433.50  1.1403E-003
 434.00  1.1429E-003
 434.50  1.1450E-003
 435.00  1.1484E-003
 435.50  1.1545E-003
 436.00  1.1588E-003
 436.50  1.1675E-003
 437.00  1.1801E-003
 437.50  1.1943E-003
 438.00  1.2061E-003
 438.50  1.2173E-003
 439.00  1.2269E-003
 439.50  1.2377E-003
 440.00  1.2540E-003
 440.50  1.2705E-003
 441.00  1.2869E-003
 441.50  1.3062E-003
 442.00  1.3235E-003
 442.50  1.3370E-003
 443.00  1.3502E-003
 443.50  1.3680E-003
 444.00  1.3880E-003
 444.50  1.4034E-003
 445.00  1.4163E-003
 445.50  1.4323E-003
 446.00  1.4490E-003
 446.50  1.4682E-003
 447.00  1.4896E-003
 447.50  1.5076E-003
 448.00  1.5294E-003
 448.50  1.5582E-003
 449.00  1.5892E-003
 449.50  1.6205E-003
 450.00  1.6509E-003
 450.50  1.6789E-003
 451.00  1.7083E-003
 451.50  1.7378E-003
 452.00  1.7661E-003
 452.50  1.7871E-003
 453.00  1.7982E-003
 453.50  1.8058E-003
 454.00  1.8154E-003
 454.50  1.8298E-003
 455.00  1.8469E-003
 455.50  1.8653E-003
 456.00  1.8754E-003
 456.50  1.8835E-003
 457.00  1.8933E-003
 457.50  1.9036E-003
 458.00  1.9201E-003
 458.50  1.9429E-003
 459.00  1.9686E-003
 459.50  1.9937E-003
 460.00  2.0174E-003
 460.50  2.0386E-003
 461.00  2.0597E-003
 461.50  2.0752E-003
 462.00  2.0846E-003
 462.50  2.0902E-003
 463.00  2.0983E-003
 463.50  2.1113E-003
 464.00  2.1236E-003
 464.50  2.1326E-003
 465.00  2.1411E-003
 465.50  2.1523E-003
 466.00  2.1631E-003
 466.50  2.1741E-003
 467.00  2.1827E-003
 467.50  2.1843E-003
 468.00  2.1847E-003
 468.50  2.1899E-003
 469.00  2.2006E-003
 469.50  2.2130E-003
 470.00  2.2291E-003
 470.50  2.2422E-003
 471.00  2.2543E-003
 471.50  2.2684E-003
 472.00  2.2874E-003
 472.50  2.3030E-003
 473.00  2.3162E-003
 473.50  2.3246E-003
 474.00  2.3289E-003
 474.50  2.3325E-003
 475.00  2.3412E-003
 475.50  2.3522E-003
 476.00  2.3619E-003
 476.50  2.3702E-003
 477.00  2.3787E-003
 477.50  2.3899E-003
 478.00  2.4021E-003
 478.50  2.4156E-003
 479.00  2.4268E-003
 479.50  2.4334E-003
 480.00  2.4382E-003
 480.50  2.4424E-003
 481.00  2.4449E-003
 481.50  2.4474E-003
 482.00  2.4516E-003
 482.50  2.4551E-003
 483.00  2.4572E-003
 483.50  2.4581E-003
 484.00  2.4554E-003
 484.50  2.4500E-003
 485.00  2.4459E-003
 485.50  2.4467E-003
 486.00  2.4461E-003
 486.50  2.4453E-003
 487.00  2.4469E-003
 487.50  2.4490E-003
 488.00  2.4514E-003
 488.50  2.4558E-003
 489.00  2.4597E-003
 489.50  2.4622E-003
 490.00  2.4652E-003
 490.50  2.4660E-003
 491.00  2.4660E-003
 491.50  2.4693E-003
 492.00  2.4741E-003
 492.50  2.4784E-003
 493.00  2.4801E-003
 493.50  2.4804E-003
 494.00  2.4798E-003
 494.50  2.4784E-003
 495.00  2.4752E-003
 495.50  2.4731E-003
 496.00  2.4709E-003
 496.50  2.4708E-003
 497.00  2.4719E-003
 497.50  2.4758E-003
 498.00  2.4807E-003
 498.50  2.4862E-003
 499.00  2.4926E-003
 499.50  2.4984E-003
 500.00  2.5030E-003
 500.50  2.5081E-003
 501.00  2.5129E-003
 501.50  2.5179E-003
 502.00  2.5253E-003
 502.50  2.5349E-003
 503.00  2.5446E-003
 503.50  2.5529E-003
 504.00  2.5608E-003
 504.50  2.5693E-003
 505.00  2.5801E-003
 505.50  2.5899E-003
 506.00  2.5990E-003
 506.50  2.6107E-003
 507.00  2.6257E-003
 507.50  2.6390E-003
 508.00  2.6528E-003
 508.50  2.6694E-003
 509.00  2.6870E-003
 509.50  2.7056E-003
 510.00  2.7256E-003
 510.50  2.7470E-003
 511.00  2.7669E-003
 511.50  2.7846E-003
 512.00  2.8011E-003
 512.50  2.8191E-003
 513.00  2.8394E-003
 513.50  2.8602E-003
 514.00  2.8809E-003
 514.50  2.9027E-003
 515.00  2.9255E-003
 515.50  2.9503E-003
 516.00  2.9773E-003
 516.50  3.0049E-003
 517.00  3.0317E-003
 517.50  3.0571E-003
 518.00  3.0834E-003
 518.50  3.1101E-003
 519.00  3.1374E-003
 519.50  3.1632E-003
 520.00  3.1875E-003
 520.50  3.2115E-003
 521.00  3.2356E-003
 521.50  3.2600E-003
 522.00  3.2838E-003
 522.50  3.3052E-003
 523.00  3.3255E-003
 523.50  3.3447E-003
 524.00  3.3617E-003
 524.50  3.3768E-003
 525.00  3.3930E-003
 525.50  3.4106E-003
 526.00  3.4260E-003
 526.50  3.4431E-003
 527.00  3.4628E-003
 527.50  3.4834E-003
 528.00  3.5060E-003
 528.50  3.5289E-003
 529.00  3.5512E-003
 529.50  3.5742E-003
 530.00  3.5955E-003
 530.50  3.6131E-003
 531.00  3.6290E-003
 531.50  3.6453E-003
 532.00  3.6630E-003
 532.50  3.6821E-003
 533.00  3.7005E-003
 533.50  3.7139E-003
 534.00  3.7241E-003
 534.50  3.7338E-003
 535.00  3.7428E-003
 535.50  3.7557E-003
 536.00  3.7686E-003
 536.50  3.7827E-003
 537.00  3.7973E-003
 537.50  3.8112E-003
 538.00  3.8263E-003
 538.50  3.8398E-003
 539.00  3.8526E-003
 539.50  3.8677E-003
 540.00  3.8855E-003
 540.50  3.9057E-003
 541.00  3.9261E-003
 541.50  3.9473E-003
 542.00  3.9686E-003
 542.50  3.9900E-003
 543.00  4.0104E-003
 543.50  4.0291E-003
 544.00  4.0479E-003
 544.50  4.0700E-003
 545.00  4.0926E-003
 545.50  4.1166E-003
 546.00  4.1419E-003
 546.50  4.1671E-003
 547.00  4.1905E-003
 547.50  4.2132E-003
 548.00  4.2365E-003
 548.50  4.2630E-003
 549.00  4.2921E-003
 549.50  4.3249E-003
 550.00  4.3569E-003
 550.50  4.3893E-003
 551.00  4.4209E-003
 551.50  4.4523E-003
 552.00  4.4840E-003
 552.50  4.5183E-003
 553.00  4.5532E-003
 553.50  4.5845E-003
 554.00  4.6133E-003
 554.50  4.6415E-003
 555.00  4.6670E-003
 555.50  4.6880E-003
 556.00  4.7092E-003
 556.50  4.7314E-003
 557.00  4.7583E-003
 557.50  4.7892E-003
 558.00  4.8198E-003
 558.50  4.8483E-003
 559.00  4.8752E-003
 559.50  4.9008E-003
 560.00  4.9249E-003
 560.50  4.9488E-003
 561.00  4.9744E-003
 561.50  5.0011E-003
 562.00  5.0273E-003
 562.50  5.0542E-003
 563.00  5.0767E-003
 563.50  5.0986E-003
 564.00  5.1183E-003
 564.50  5.1376E-003
 565.00  5.1557E-003
 565.50  5.1787E-003
 566.00  5.2054E-003
 566.50  5.2333E-003
 567.00  5.2619E-003
 567.50  5.2882E-003
 568.00  5.3100E-003
 568.50  5.3305E-003
 569.00  5.3506E-003
 569.50  5.3724E-003
 570.00  5.3959E-003
 570.50  5.4185E-003
 571.00  5.4407E-003
 571.50  5.4633E-003
 572.00  5.4857E-003
 572.50  5.5067E-003
 573.00  5.5292E-003
 573.50  5.5533E-003
 574.00  5.5786E-003
 574.50  5.6048E-003
 575.00  5.6320E-003
 575.50  5.6588E-003
 576.00  5.6860E-003
 576.50  5.7143E-003
 577.00  5.7421E-003
 577.50  5.7694E-003
 578.00  5.7965E-003
 578.50  5.8219E-003
 579.00  5.8475E-003
 579.50  5.8738E-003
 580.00  5.9017E-003
 580.50  5.9303E-003
 581.00  5.9582E-003
 581.50  5.9843E-003
 582.00  6.0101E-003
 582.50  6.0378E-003
 583.00  6.0640E-003
 583.50  6.0909E-003
 584.00  6.1190E-003
 584.50  6.1460E-003
 585.00  6.1686E-003
 585.50  6.1889E-003
 586.00  6.2132E-003
 586.50  6.2373E-003
 587.00  6.2648E-003
 587.50  6.2944E-003
 588.00  6.3264E-003
 588.50  6.3625E-003
 589.00  6.4017E-003
 589.50  6.4402E-003
 590.00  6.4753E-003
 590.50  6.5079E-003
 591.00  6.5377E-003
 591.50  6.5664E-003
 592.00  6.5938E-003
 592.50  6.6199E-003
 593.00  6.6457E-003
 593.50  6.6745E-003
 594.00  6.7050E-003
 594.50  6.7349E-003
 595.00  6.7635E-003
 595.50  6.7913E-003
 596.00  6.8187E-003
 596.50  6.8489E-003
 597.00  6.8809E-003
 597.50  6.9132E-003
 598.00  6.9489E-003
 598.50  6.9851E-003
 599.00  7.0206E-003
 599.50  7.0574E-003
 600.00  7.0950E-003
 600.50  7.1332E-003
 601.00  7.1702E-003
 601.50  7.2004E-003
 602.00  7.2278E-003
 602.50  7.2524E-003
 603.00  7.2780E-003
 603.50  7.3013E-003
 604.00  7.3242E-003
 604.50  7.3468E-003
 605.00  7.3673E-003
 605.50  7.3866E-003
 606.00  7.4082E-003
 606.50  7.4317E-003
 607.00  7.4560E-003
 607.50  7.4836E-003
 608.00  7.5116E-003
 608.50  7.5393E-003
 609.00  7.5649E-003
 609.50  7.5928E-003
 610.00  7.6214E-003
 610.50  7.6477E-003
 611.00  7.6717E-003
 611.50  7.6924E-003
 612.00  7.7106E-003
 612.50  7.7292E-003
 613.00  7.7501E-003
 613.50  7.7737E-003
 614.00  7.7970E-003
 614.50  7.8187E-003
 615.00  7.8417E-003
 615.50  7.8654E-003
 616.00  7.8866E-003
 616.50  7.9110E-003
 617.00  7.9315E-003
 617.50  7.9504E-003
 618.00  7.9675E-003
 618.50  7.9860E-003
 619.00  8.0046E-003
 619.50  8.0220E-003
 620.00  8.0377E-003
 620.50  8.0497E-003
 621.00  8.0583E-003
 621.50  8.0698E-003
 622.00  8.0834E-003
 622.50  8.1012E-003
 623.00  8.1232E-003
 623.50  8.1453E-003
 624.00  8.1659E-003
 624.50  8.1861E-003
 625.00  8.2001E-003
 625.50  8.2060E-003
 626.00  8.2100E-003
 626.50  8.2169E-003
 627.00  8.2248E-003
 627.50  8.2375E-003
 628.00  8.2507E-003
 628.50  8.2621E-003
 629.00  8.2754E-003
 629.50  8.2904E-003
 630.00  8.3022E-003
 630.50  8.3157E-003
 631.00  8.3313E-003
 631.50  8.3462E-003
 632.00  8.3620E-003
 632.50  8.3779E-003
 633.00  8.3931E-003
 633.50  8.4079E-003
 634.00  8.4225E-003
 634.50  8.4372E-003
 635.00  8.4516E-003
 635.50  8.4675E-003
 636.00  8.4832E-003
 636.50  8.5005E-003
 637.00  8.5185E-003
 637.50  8.5330E-003
 638.00  8.5495E-003
 638.50  8.5632E-003
 639.00  8.5771E-003
 639.50  8.5932E-003
 640.00  8.6112E-003
 640.50  8.6301E-003
 641.00  8.6476E-003
 641.50  8.6605E-003
 642.00  8.6745E-003
 642.50  8.6837E-003
 643.00  8.6952E-003
 643.50  8.7098E-003
 644.00  8.7212E-003
 644.50  8.7339E-003
 645.00  8.7474E-003
 645.50  8.7629E-003
 646.00  8.7824E-003
 646.50  8.8053E-003
 647.00  8.8301E-003
 647.50  8.8533E-003
 648.00  8.8780E-003
 648.50  8.9011E-003
 649.00  8.9205E-003
 649.50  8.9392E-003
 650.00  8.9577E-003
 650.50  8.9700E-003
 651.00  8.9807E-003
 651.50  8.9952E-003
 652.00  9.0140E-003
 652.50  9.0367E-003
 653.00  9.0668E-003
 653.50  9.1057E-003
 654.00  9.1452E-003
 654.50  9.1772E-003
 655.00  9.2091E-003
 655.50  9.2391E-003
 656.00  9.2722E-003
 656.50  9.3101E-003
 657.00  9.3504E-003
 657.50  9.3895E-003
 658.00  9.4278E-003
 658.50  9.4654E-003
 659.00  9.4994E-003
 659.50  9.5316E-003
 660.00  9.5613E-003
 660.50  9.5846E-003
 661.00  9.6016E-003
 661.50  9.6198E-003
 662.00  9.6430E-003
 662.50  9.6635E-003
 663.00  9.6859E-003
 663.50  9.7092E-003
 664.00  9.7303E-003
 664.50  9.7473E-003
 665.00  9.7624E-003
 665.50  9.7836E-003
 666.00  9.8023E-003
 666.50  9.8190E-003
 667.00  9.8345E-003
 667.50  9.8433E-003
 668.00  9.8464E-003
 668.50  9.8540E-003
 669.00  9.8706E-003
 669.50  9.8869E-003
 670.00  9.9038E-003
 670.50  9.9133E-003
 671.00  9.9211E-003
 671.50  9.9304E-003
 672.00  9.9391E-003
 672.50  9.9443E-003
 673.00  9.9448E-003
 673.50  9.9470E-003
 674.00  9.9558E-003
 674.50  9.9683E-003
 675.00  9.9813E-003
 675.50  1.0003E-002
 676.00  1.0020E-002
 676.50  1.0032E-002
 677.00  1.0046E-002
 677.50  1.0054E-002
 678.00  1.0053E-002
 678.50  1.0051E-002
 679.00  1.0052E-002
 679.50  1.0054E-002
 680.00  1.0060E-002
 680.50  1.0065E-002
 681.00  1.0072E-002
 681.50  1.0088E-002
 682.00  1.0112E-002
 682.50  1.0135E-002
 683.00  1.0150E-002
 683.50  1.0152E-002
 684.00  1.0154E-002
 684.50  1.0153E-002
 685.00  1.0152E-002
 685.50  1.0152E-002
 686.00  1.0154E-002
 686.50  1.0156E-002
 687.00  1.0156E-002
 687.50  1.0154E-002
 688.00  1.0158E-002
 688.50  1.0171E-002
 689.00  1.0188E-002
 689.50  1.0210E-002
 690.00  1.0223E-002
 690.50  1.0227E-002
 691.00  1.0222E-002
 691.50  1.0212E-002
 692.00  1.0203E-002
 692.50  1.0198E-002
 693.00  1.0204E-002
 693.50  1.0217E-002
 694.00  1.0227E-002
 694.50  1.0234E-002
 695.00  1.0246E-002
 695.50  1.0252E-002
 696.00  1.0249E-002
 696.50  1.0243E-002
 697.00  1.0242E-002
 697.50  1.0243E-002
 698.00  1.0246E-002
 698.50  1.0249E-002
 699.00  1.0246E-002
 699.50  1.0245E-002
 700.00  1.0240E-002
 700.50  1.0235E-002
 701.00  1.0238E-002
 701.50  1.0249E-002
 702.00  1.0264E-002
 702.50  1.0281E-002
 703.00  1.0295E-002
 703.50  1.0307E-002
 704.00  1.0319E-002
 704.50  1.0329E-002
 705.00  1.0339E-002
 705.50  1.0364E-002
 706.00  1.0395E-002
 706.50  1.0429E-002
 707.00  1.0462E-002
 707.50  1.0489E-002
 708.00  1.0512E-002
 708.50  1.0538E-002
 709.00  1.0559E-002
 709.50  1.0583E-002
 710.00  1.0611E-002
 710.50  1.0639E-002
 711.00  1.0664E-002
 711.50  1.0686E-002
 712.00  1.0710E-002
 712.50  1.0731E-002
 713.00  1.0756E-002
 713.50  1.0783E-002
 714.00  1.0806E-002
 714.50  1.0828E-002
 715.00  1.0847E-002
 715.50  1.0867E-002
 716.00  1.0887E-002
 716.50  1.0902E-002
 717.00  1.0916E-002
 717.50  1.0926E-002
 718.00  1.0943E-002
 718.50  1.0964E-002
 719.00  1.0979E-002
 719.50  1.0994E-002
 720.00  1.1008E-002
 720.50  1.1030E-002
 721.00  1.1066E-002
 721.50  1.1107E-002
 722.00  1.1143E-002
 722.50  1.1172E-002
 723.00  1.1197E-002
 723.50  1.1226E-002
 724.00  1.1259E-002
 724.50  1.1292E-002
 725.00  1.1330E-002
 725.50  1.1372E-002
 726.00  1.1402E-002
 726.50  1.1439E-002
 727.00  1.1482E-002
 727.50  1.1514E-002
 728.00  1.1540E-002
 728.50  1.1568E-002
 729.00  1.1592E-002
 729.50  1.1616E-002
 730.00  1.1642E-002
 730.50  1.1672E-002
 731.00  1.1708E-002
 731.50  1.1746E-002
 732.00  1.1781E-002
 732.50  1.1813E-002
 733.00  1.1850E-002
 733.50  1.1884E-002
 734.00  1.1916E-002
 734.50  1.1960E-002
 735.00  1.2009E-002
 735.50  1.2056E-002
 736.00  1.2102E-002
 736.50  1.2146E-002
 737.00  1.2185E-002
 737.50  1.2221E-002
 738.00  1.2253E-002
 738.50  1.2286E-002
 739.00  1.2323E-002
 739.50  1.2361E-002
 740.00  1.2406E-002
 740.50  1.2447E-002
 741.00  1.2482E-002
 741.50  1.2521E-002
 742.00  1.2566E-002
 742.50  1.2610E-002
 743.00  1.2655E-002
 743.50  1.2698E-002
 744.00  1.2748E-002
 744.50  1.2797E-002
 745.00  1.2837E-002
 745.50  1.2877E-002
 746.00  1.2919E-002
 746.50  1.2962E-002
 747.00  1.3003E-002
 747.50  1.3044E-002
 748.00  1.3083E-002
 748.50  1.3121E-002
 749.00  1.3160E-002
 749.50  1.3208E-002
 750.00  1.3263E-002
 750.50  1.3320E-002
 751.00  1.3373E-002
 751.50  1.3422E-002
 752.00  1.3459E-002
 752.50  1.3484E-002
 753.00  1.3498E-002
 753.50  1.3510E-002
 754.00  1.3523E-002
 754.50  1.3538E-002
 755.00  1.3558E-002
 755.50  1.3568E-002
 756.00  1.3568E-002
 756.50  1.3577E-002
 757.00  1.3585E-002
 757.50  1.3583E-002
 758.00  1.3583E-002
 758.50  1.3589E-002
 759.00  1.3596E-002
 759.50  1.3602E-002
 760.00  1.3610E-002
 760.50  1.3617E-002
 761.00  1.3621E-002
 761.50  1.3633E-002
 762.00  1.3647E-002
 762.50  1.3658E-002
 763.00  1.3669E-002
 763.50  1.3681E-002
 764.00  1.3691E-002
 764.50  1.3695E-002
 765.00  1.3692E-002
 765.50  1.3689E-002
 766.00  1.3697E-002
 766.50  1.3715E-002
 767.00  1.3733E-002
 767.50  1.3750E-002
 768.00  1.3776E-002
 768.50  1.3807E-002
 769.00  1.3837E-002
 769.50  1.3862E-002
 770.00  1.3874E-002
 770.50  1.3882E-002
 771.00  1.3893E-002
 771.50  1.3905E-002
 772.00  1.3911E-002
 772.50  1.3921E-002
 773.00  1.3925E-002
 773.50  1.3931E-002
 774.00  1.3935E-002
 774.50  1.3937E-002
 775.00  1.3940E-002
 775.50  1.3946E-002
 776.00  1.3961E-002
 776.50  1.3971E-002
 777.00  1.3982E-002
 777.50  1.3991E-002
 778.00  1.3988E-002
 778.50  1.3984E-002
 779.00  1.3974E-002
 779.50  1.3961E-002
 780.00  1.3955E-002
 780.50  1.3956E-002
 781.00  1.3960E-002
 781.50  1.3955E-002
 782.00  1.3942E-002
 782.50  1.3939E-002
 783.00  1.3946E-002
 783.50  1.3949E-002
 784.00  1.3954E-002
 784.50  1.3961E-002
 785.00  1.3970E-002
 785.50  1.3987E-002
 786.00  1.4005E-002
 786.50  1.4034E-002
 787.00  1.4068E-002
 787.50  1.4103E-002
 788.00  1.4149E-002
 788.50  1.4192E-002
 789.00  1.4224E-002
 789.50  1.4255E-002
 790.00  1.4295E-002
 790.50  1.4338E-002
 791.00  1.4384E-002
 791.50  1.4423E-002
 792.00  1.4458E-002
 792.50  1.4499E-002
 793.00  1.4557E-002
 793.50  1.4624E-002
 794.00  1.4684E-002
 794.50  1.4735E-002
 795.00  1.4786E-002
 795.50  1.4826E-002
 796.00  1.4855E-002
 796.50  1.4885E-002
 797.00  1.4919E-002
 797.50  1.4950E-002
 798.00  1.4978E-002
 798.50  1.5009E-002
 799.00  1.5037E-002
 799.50  1.5077E-002
 800.00  1.5118E-002
 800.50  1.5165E-002
 801.00  1.5220E-002
 801.50  1.5271E-002
 802.00  1.5310E-002
 802.50  1.5341E-002
 803.00  1.5374E-002
 803.50  1.5410E-002
 804.00  1.5461E-002
 804.50  1.5518E-002
 805.00  1.5569E-002
 805.50  1.5614E-002
 806.00  1.5655E-002
 806.50  1.5688E-002
 807.00  1.5732E-002
 807.50  1.5790E-002
 808.00  1.5841E-002
 808.50  1.5876E-002
 809.00  1.5906E-002
 809.50  1.5938E-002
 810.00  1.5975E-002
 810.50  1.6029E-002
 811.00  1.6100E-002
 811.50  1.6170E-002
 812.00  1.6237E-002
 812.50  1.6294E-002
 813.00  1.6334E-002
 813.50  1.6377E-002
 814.00  1.6431E-002
 814.50  1.6476E-002
 815.00  1.6518E-002
 815.50  1.6568E-002
 816.00  1.6621E-002
 816.50  1.6686E-002
 817.00  1.6757E-002
 817.50  1.6833E-002
 818.00  1.6903E-002
 818.50  1.6961E-002
 819.00  1.7014E-002
 819.50  1.7065E-002
 820.00  1.7112E-002
 820.50  1.7158E-002
 821.00  1.7212E-002
 821.50  1.7274E-002
 822.00  1.7346E-002
 822.50  1.7414E-002
 823.00  1.7483E-002
 823.50  1.7558E-002
 824.00  1.7628E-002
 824.50  1.7685E-002
 825.00  1.7733E-002
 825.50  1.7758E-002
 826.00  1.7785E-002
 826.50  1.7822E-002
 827.00  1.7857E-002
 827.50  1.7897E-002
 828.00  1.7930E-002
 828.50  1.7949E-002
 829.00  1.7971E-002
 829.50  1.7997E-002
 830.00  1.8041E-002
 830.50  1.8081E-002
 831.00  1.8123E-002
 831.50  1.8160E-002
 832.00  1.8196E-002
 832.50  1.8237E-002
 833.00  1.8276E-002
 833.50  1.8305E-002
 834.00  1.8328E-002
 834.50  1.8348E-002
 835.00  1.8379E-002
 835.50  1.8411E-002
 836.00  1.8440E-002
 836.50  1.8462E-002
 837.00  1.8490E-002
 837.50  1.8524E-002
 838.00  1.8561E-002
 838.50  1.8621E-002
 839.00  1.8689E-002
 839.50  1.8766E-002
 840.00  1.8834E-002
 840.50  1.8888E-002
 841.00  1.8931E-002
 841.50  1.8978E-002
 842.00  1.9022E-002
 842.50  1.9049E-002
 843.00  1.9074E-002
 843.50  1.9088E-002
 844.00  1.9096E-002
 844.50  1.9131E-002
 845.00  1.9159E-002
 845.50  1.9189E-002
 846.00  1.9211E-002
 846.50  1.9221E-002
 847.00  1.9248E-002
 847.50  1.9280E-002
 848.00  1.9306E-002
 848.50  1.9335E-002
 849.00  1.9354E-002
 849.50  1.9354E-002
 850.00  1.9341E-002
 850.50  1.9306E-002
 851.00  1.9259E-002
 851.50  1.9218E-002
 852.00  1.9202E-002
 852.50  1.9203E-002
 853.00  1.9212E-002
 853.50  1.9221E-002
 854.00  1.9221E-002
 854.50  1.9230E-002
 855.00  1.9243E-002
 855.50  1.9264E-002
 856.00  1.9281E-002
 856.50  1.9300E-002
 857.00  1.9319E-002
 857.50  1.9339E-002
 858.00  1.9346E-002
 858.50  1.9341E-002
 859.00  1.9333E-002
 859.50  1.9291E-002
 860.00  1.9243E-002
 860.50  1.9218E-002
 861.00  1.9218E-002
 861.50  1.9226E-002
 862.00  1.9229E-002
 862.50  1.9229E-002
 863.00  1.9210E-002
 863.50  1.9199E-002
 864.00  1.9173E-002
 864.50  1.9128E-002
 865.00  1.9097E-002
 865.50  1.9068E-002
 866.00  1.9038E-002
 866.50  1.9004E-002
 867.00  1.8979E-002
 867.50  1.8969E-002
 868.00  1.8958E-002
 868.50  1.8941E-002
 869.00  1.8934E-002
 869.50  1.8933E-002
 870.00  1.8923E-002
 870.50  1.8928E-002
 871.00  1.8920E-002
 871.50  1.8903E-002
 872.00  1.8892E-002
 872.50  1.8893E-002
 873.00  1.8890E-002
 873.50  1.8882E-002
 874.00  1.8871E-002
 874.50  1.8860E-002
 875.00  1.8861E-002
 875.50  1.8870E-002
 876.00  1.8878E-002
 876.50  1.8882E-002
 877.00  1.8894E-002
 877.50  1.8903E-002
 878.00  1.8902E-002
 878.50  1.8889E-002
 879.00  1.8875E-002
 879.50  1.8848E-002
 880.00  1.8808E-002
 880.50  1.8775E-002
 881.00  1.8739E-002
 881.50  1.8709E-002
 882.00  1.8695E-002
 882.50  1.8693E-002
 883.00  1.8689E-002
 883.50  1.8686E-002
 884.00  1.8686E-002
 884.50  1.8685E-002
 885.00  1.8683E-002
 885.50  1.8691E-002
 886.00  1.8692E-002
 886.50  1.8712E-002
 887.00  1.8760E-002
 887.50  1.8804E-002
 888.00  1.8849E-002
 888.50  1.8889E-002
 889.00  1.8937E-002
 889.50  1.8985E-002
 890.00  1.9017E-002
 890.50  1.9021E-002
 891.00  1.9011E-002
 891.50  1.9003E-002
 892.00  1.9011E-002
 892.50  1.9023E-002
 893.00  1.9049E-002
 893.50  1.9073E-002
 894.00  1.9085E-002
 894.50  1.9113E-002
 895.00  1.9149E-002
 895.50  1.9185E-002
 896.00  1.9228E-002
 896.50  1.9261E-002
 897.00  1.9299E-002
 897.50  1.9322E-002
 898.00  1.9333E-002
 898.50  1.9345E-002
 899.00  1.9348E-002
 899.50  1.9362E-002
 900.00  1.9367E-002
 900.50  1.9372E-002
 901.00  1.9374E-002
 901.50  1.9382E-002
 902.00  1.9405E-002
 902.50  1.9442E-002
 903.00  1.9484E-002
 903.50  1.9530E-002
 904.00  1.9567E-002
 904.50  1.9611E-002
 905.00  1.9647E-002
 905.50  1.9672E-002
 906.00  1.9688E-002
 906.50  1.9682E-002
 907.00  1.9679E-002
 907.50  1.9661E-002
 908.00  1.9668E-002
 908.50  1.9716E-002
 909.00  1.9789E-002
 909.50  1.9864E-002
 910.00  1.9926E-002
 910.50  1.9953E-002
 911.00  1.9975E-002
 911.50  1.9993E-002
 912.00  2.0019E-002
 912.50  2.0060E-002
 913.00  2.0093E-002
 913.50  2.0128E-002
 914.00  2.0166E-002
 914.50  2.0198E-002
 915.00  2.0210E-002
 915.50  2.0208E-002
 916.00  2.0199E-002
 916.50  2.0182E-002
 917.00  2.0190E-002
 917.50  2.0227E-002
 918.00  2.0286E-002
 918.50  2.0354E-002
 919.00  2.0404E-002
 919.50  2.0464E-002
 920.00  2.0534E-002
 920.50  2.0611E-002
 921.00  2.0685E-002
 921.50  2.0734E-002
 922.00  2.0796E-002
 922.50  2.0841E-002
 923.00  2.0888E-002
 923.50  2.0927E-002
 924.00  2.0933E-002
 924.50  2.0919E-002
 925.00  2.0867E-002
 925.50  2.0853E-002
 926.00  2.0877E-002
 926.50  2.0920E-002
 927.00  2.0968E-002
 927.50  2.0966E-002
 928.00  2.0919E-002
 928.50  2.0871E-002
 929.00  2.0827E-002
 929.50  2.0775E-002
 930.00  2.0721E-002
 930.50  2.0687E-002
 931.00  2.0675E-002
 931.50  2.0662E-002
 932.00  2.0611E-002
 932.50  2.0552E-002
 933.00  2.0501E-002
 933.50  2.0493E-002
 934.00  2.0520E-002
 934.50  2.0573E-002
 935.00  2.0642E-002
 935.50  2.0730E-002
 936.00  2.0861E-002
 936.50  2.1035E-002
 937.00  2.1250E-002
 937.50  2.1501E-002
 938.00  2.1780E-002
 938.50  2.2054E-002
 939.00  2.2334E-002
 939.50  2.2629E-002
 940.00  2.2923E-002
 940.50  2.3203E-002
 941.00  2.3427E-002
 941.50  2.3656E-002
 942.00  2.3823E-002
 942.50  2.3925E-002
 943.00  2.3937E-002
 943.50  2.3874E-002
 944.00  2.3836E-002
 944.50  2.3765E-002
 945.00  2.3610E-002
 945.50  2.3403E-002
 946.00  2.3148E-002
 946.50  2.2904E-002
 947.00  2.2709E-002
 947.50  2.2499E-002
 948.00  2.2301E-002
 948.50  2.2121E-002
 949.00  2.1942E-002
 949.50  2.1782E-002
 950.00  2.1686E-002
 950.50  2.1566E-002
 951.00  2.1451E-002
 951.50  2.1376E-002
 952.00  2.1363E-002
 952.50  2.1374E-002
 953.00  2.1419E-002
 953.50  2.1447E-002
 954.00  2.1440E-002
 954.50  2.1400E-002
 955.00  2.1398E-002
 955.50  2.1331E-002
 956.00  2.1243E-002
 956.50  2.1180E-002
 957.00  2.1133E-002
 957.50  2.1110E-002
 958.00  2.1080E-002
 958.50  2.1064E-002
 959.00  2.1061E-002
 959.50  2.1114E-002
 960.00  2.1186E-002
 960.50  2.1261E-002
 961.00  2.1289E-002
 961.50  2.1317E-002
 962.00  2.1327E-002
 962.50  2.1378E-002
 963.00  2.1437E-002
 963.50  2.1475E-002
 964.00  2.1487E-002
 964.50  2.1467E-002
 965.00  2.1414E-002
 965.50  2.1346E-002
 966.00  2.1262E-002
 966.50  2.1187E-002
 967.00  2.1122E-002
 967.50  2.1093E-002
 968.00  2.1100E-002
 968.50  2.1066E-002
 969.00  2.1001E-002
 969.50  2.0894E-002
 970.00  2.0785E-002
 970.50  2.0676E-002
 971.00  2.0582E-002
 971.50  2.0464E-002
 972.00  2.0350E-002
 972.50  2.0302E-002
 973.00  2.0272E-002
 973.50  2.0215E-002
 974.00  2.0157E-002
 974.50  2.0099E-002
 975.00  2.0090E-002
 975.50  2.0063E-002
 976.00  2.0025E-002
 976.50  1.9983E-002
 977.00  1.9973E-002
 977.50  1.9915E-002
 978.00  1.9843E-002
 978.50  1.9805E-002
 979.00  1.9747E-002
 979.50  1.9738E-002
 980.00  1.9752E-002
 980.50  1.9797E-002
 981.00  1.9879E-002
 981.50  1.9981E-002
 982.00  2.0094E-002
 982.50  2.0179E-002
 983.00  2.0170E-002
 983.50  2.0171E-002
 984.00  2.0170E-002
 984.50  2.0201E-002
 985.00  2.0255E-002
 985.50  2.0300E-002
 986.00  2.0379E-002
 986.50  2.0450E-002
 987.00  2.0495E-002
 987.50  2.0516E-002
 988.00  2.0518E-002
 988.50  2.0548E-002
 989.00  2.0594E-002
 989.50  2.0679E-002
 990.00  2.0737E-002
 990.50  2.0823E-002
 991.00  2.0920E-002
 991.50  2.1030E-002
 992.00  2.1111E-002
 992.50  2.1198E-002
 993.00  2.1271E-002
 993.50  2.1243E-002
 994.00  2.1214E-002
 994.50  2.1304E-002
 995.00  2.1425E-002
 995.50  2.1455E-002
 996.00  2.1382E-002
 996.50  2.1301E-002
 997.00  2.1257E-002
 997.50  2.1231E-002
 998.00  2.1188E-002
 998.50  2.1110E-002
 999.00  2.1018E-002
 999.50  2.1016E-002
1000.00  2.1036E-002
1000.50  2.1058E-002
1001.00  2.1074E-002
1001.50  2.1041E-002
1002.00  2.0984E-002
1002.50  2.0949E-002
1003.00  2.0955E-002
1003.50  2.0979E-002
1004.00  2.0980E-002
1004.50  2.0934E-002
1005.00  2.0929E-002
1005.50  2.0921E-002
1006.00  2.0866E-002
1006.50  2.0793E-002
1007.00  2.0773E-002
1007.50  2.0751E-002
1008.00  2.0676E-002
1008.50  2.0531E-002
1009.00  2.0347E-002
1009.50  2.0267E-002
1010.00  2.0313E-002
1010.50  2.0464E-002
1011.00  2.0700E-002
1011.50  2.0955E-002
1012.00  2.1133E-002
1012.50  2.1166E-002
1013.00  2.1077E-002
1013.50  2.0931E-002
1014.00  2.0788E-002
1014.50  2.0627E-002
1015.00  2.0532E-002
1015.50  2.0422E-002
1016.00  2.0308E-002
1016.50  2.0269E-002
1017.00  2.0261E-002
1017.50  2.0277E-002
1018.00  2.0399E-002
1018.50  2.0528E-002
1019.00  2.0627E-002
1019.50  2.0709E-002
1020.00  2.0865E-002
1020.50  2.0926E-002
1021.00  2.0966E-002
1021.50  2.1032E-002
1022.00  2.1057E-002
1022.50  2.0979E-002
1023.00  2.0907E-002
1023.50  2.0843E-002
1024.00  2.0901E-002
1024.50  2.1070E-002
1025.00  2.1162E-002
1025.50  2.1329E-002
1026.00  2.1499E-002
1026.50  2.1745E-002
1027.00  2.1995E-002
1027.50  2.2161E-002
1028.00  2.2385E-002
1028.50  2.2644E-002
1029.00  2.2701E-002
1029.50  2.2671E-002
1030.00  2.2511E-002
1030.50  2.2440E-002
1031.00  2.2316E-002
1031.50  2.2175E-002
1032.00  2.2188E-002
1032.50  2.2105E-002
1033.00  2.1937E-002
1033.50  2.1708E-002
1034.00  2.1419E-002
1034.50  2.1230E-002
1035.00  2.1065E-002
1035.50  2.0928E-002
1036.00  2.0994E-002
1036.50  2.1147E-002
1037.00  2.1194E-002
1037.50  2.0954E-002
1038.00  2.0583E-002
1038.50  2.0292E-002
1039.00  2.0014E-002
1039.50  1.9669E-002
1040.00  1.9464E-002
1040.50  1.9494E-002
1041.00  1.9662E-002
1041.50  1.9595E-002
1042.00  1.9597E-002
1042.50  1.9576E-002
1043.00  1.9534E-002
1043.50  1.9439E-002
1044.00  1.9325E-002
1044.50  1.9277E-002
1045.00  1.9381E-002
1045.50  1.9219E-002
1046.00  1.8860E-002
1046.50  1.8443E-002
1047.00  1.7957E-002
1047.50  1.7555E-002
1048.00  1.7238E-002
1048.50  1.6850E-002
1049.00  1.6459E-002
1049.50  1.5983E-002
1050.00  1.5575E-002
1050.50  1.5470E-002
1051.00  1.5329E-002
1051.50  1.4942E-002
1052.00  1.4544E-002
1052.50  1.4327E-002
1053.00  1.4191E-002
1053.50  1.3979E-002
1054.00  1.3743E-002
1054.50  1.3710E-002
1055.00  1.3899E-002
1055.50  1.4003E-002
1056.00  1.4097E-002
1056.50  1.4010E-002
1057.00  1.4047E-002
1057.50  1.4113E-002
1058.00  1.4065E-002
1058.50  1.3910E-002
1059.00  1.3716E-002
1059.50  1.3608E-002
1060.00  1.3170E-002
1060.50  1.2815E-002
1061.00  1.2551E-002
1061.50  1.2200E-002
1062.00  1.1970E-002
1062.50  1.1875E-002
1063.00  1.1923E-002
1063.50  1.1786E-002
1064.00  1.1453E-002
1064.50  1.1165E-002
1065.00  1.0757E-002
1065.50  1.0433E-002
1066.00  1.0182E-002
1066.50  1.0038E-002
1067.00  1.0021E-002
1067.50  1.0349E-002
1068.00  1.0790E-002
1068.50  1.1126E-002
1069.00  1.1411E-002
1069.50  1.1650E-002
1070.00  1.1760E-002
1070.50  1.1782E-002
1071.00  1.2014E-002
1071.50  1.1967E-002
1072.00  1.2379E-002
1072.50  1.2813E-002
1073.00  1.3017E-002
1073.50  1.3007E-002
1074.00  1.3260E-002
1074.50  1.3474E-002
1075.00  1.3672E-002
1075.50  1.3862E-002
1076.00  1.3931E-002
1076.50  1.3640E-002
1077.00  1.3482E-002
1077.50  1.3432E-002
1078.00  1.3332E-002
1078.50  1.2915E-002
1079.00  1.2265E-002
1079.50  1.2166E-002
1080.00  1.2045E-002
1080.50  1.1983E-002
1081.00  1.2000E-002
1081.50  1.2035E-002
1082.00  1.2008E-002
1082.50  1.1701E-002
1083.00  1.1406E-002
1083.50  1.1185E-002
1084.00  1.1251E-002
1084.50  1.1520E-002
1085.00  1.1674E-002
1085.50  1.1909E-002
1086.00  1.1954E-002
1086.50  1.1751E-002
1087.00  1.1716E-002
1087.50  1.1572E-002
1088.00  1.1654E-002
1088.50  1.1649E-002
1089.00  1.1725E-002
1089.50  1.2324E-002
1090.00  1.2616E-002
1090.50  1.2501E-002
1091.00  1.2338E-002
1091.50  1.2496E-002
1092.00  1.2767E-002
1092.50  1.3216E-002
1093.00  1.3246E-002
1093.50  1.3042E-002
1094.00  1.3059E-002
1094.50  1.3399E-002
1095.00  1.2926E-002
1095.50  1.3519E-002
1096.00  1.3575E-002
1096.50  1.3737E-002
1097.00  1.3770E-002
1097.50  1.3844E-002
1098.00  1.3779E-002
1098.50  1.4013E-002
1099.00  1.5515E-002
1099.50  2.3516E-002
1100.00  5.2376E-005
1100.50  0.0000E+000
: 5
