" File: Users\student\Documents\SpectraWiz data\
" RAD->  Wave:601.07nm  Pix:754  Val:  2.980  Time:575ms  Avg:1  Sm:4  Sg:0  Tc:off  SNAP  Xt:1  Ch:1  Xtrig
 234.00  0.0000E+000
 234.50  0.0000E+000
 235.00  0.0000E+000
 235.50  0.0000E+000
 236.00  0.0000E+000
 236.50  0.0000E+000
 237.00  0.0000E+000
 237.50  0.0000E+000
 238.00  0.0000E+000
 238.50  0.0000E+000
 239.00  0.0000E+000
 239.50  0.0000E+000
 240.00  0.0000E+000
 240.50  0.0000E+000
 241.00  0.0000E+000
 241.50  0.0000E+000
 242.00  0.0000E+000
 242.50  0.0000E+000
 243.00  0.0000E+000
 243.50  0.0000E+000
 244.00  0.0000E+000
 244.50  0.0000E+000
 245.00  0.0000E+000
 245.50  0.0000E+000
 246.00  0.0000E+000
 246.50  0.0000E+000
 247.00  0.0000E+000
 247.50  0.0000E+000
 248.00  0.0000E+000
 248.50  0.0000E+000
 249.00  0.0000E+000
 249.50  0.0000E+000
 250.00  0.0000E+000
 250.50  0.0000E+000
 251.00  0.0000E+000
 251.50  0.0000E+000
 252.00  0.0000E+000
 252.50  0.0000E+000
 253.00  0.0000E+000
 253.50  0.0000E+000
 254.00  0.0000E+000
 254.50  0.0000E+000
 255.00  0.0000E+000
 255.50  0.0000E+000
 256.00  0.0000E+000
 256.50  0.0000E+000
 257.00  0.0000E+000
 257.50  0.0000E+000
 258.00  0.0000E+000
 258.50  0.0000E+000
 259.00  0.0000E+000
 259.50  0.0000E+000
 260.00  0.0000E+000
 260.50  0.0000E+000
 261.00  0.0000E+000
 261.50  0.0000E+000
 262.00  0.0000E+000
 262.50  0.0000E+000
 263.00  0.0000E+000
 263.50  0.0000E+000
 264.00  0.0000E+000
 264.50  0.0000E+000
 265.00  0.0000E+000
 265.50  0.0000E+000
 266.00  0.0000E+000
 266.50  0.0000E+000
 267.00  0.0000E+000
 267.50  0.0000E+000
 268.00  0.0000E+000
 268.50  0.0000E+000
 269.00  0.0000E+000
 269.50  0.0000E+000
 270.00  0.0000E+000
 270.50  0.0000E+000
 271.00  0.0000E+000
 271.50  0.0000E+000
 272.00  0.0000E+000
 272.50  0.0000E+000
 273.00  0.0000E+000
 273.50  0.0000E+000
 274.00  0.0000E+000
 274.50  0.0000E+000
 275.00  0.0000E+000
 275.50  0.0000E+000
 276.00  0.0000E+000
 276.50  0.0000E+000
 277.00  0.0000E+000
 277.50  0.0000E+000
 278.00  0.0000E+000
 278.50  0.0000E+000
 279.00  0.0000E+000
 279.50  0.0000E+000
 280.00  0.0000E+000
 280.50  0.0000E+000
 281.00  0.0000E+000
 281.50  0.0000E+000
 282.00  0.0000E+000
 282.50  0.0000E+000
 283.00  0.0000E+000
 283.50  0.0000E+000
 284.00  0.0000E+000
 284.50  0.0000E+000
 285.00  0.0000E+000
 285.50  0.0000E+000
 286.00  0.0000E+000
 286.50  0.0000E+000
 287.00  0.0000E+000
 287.50  0.0000E+000
 288.00  0.0000E+000
 288.50  0.0000E+000
 289.00  0.0000E+000
 289.50  0.0000E+000
 290.00  0.0000E+000
 290.50  0.0000E+000
 291.00  0.0000E+000
 291.50  0.0000E+000
 292.00  0.0000E+000
 292.50  0.0000E+000
 293.00  0.0000E+000
 293.50  0.0000E+000
 294.00  0.0000E+000
 294.50  0.0000E+000
 295.00  0.0000E+000
 295.50  0.0000E+000
 296.00  0.0000E+000
 296.50  0.0000E+000
 297.00  0.0000E+000
 297.50  0.0000E+000
 298.00  0.0000E+000
 298.50  0.0000E+000
 299.00  0.0000E+000
 299.50  0.0000E+000
 300.00  0.0000E+000
 300.50  0.0000E+000
 301.00  0.0000E+000
 301.50  0.0000E+000
 302.00  0.0000E+000
 302.50  0.0000E+000
 303.00  0.0000E+000
 303.50  0.0000E+000
 304.00  0.0000E+000
 304.50  0.0000E+000
 305.00  0.0000E+000
 305.50  0.0000E+000
 306.00  0.0000E+000
 306.50  0.0000E+000
 307.00  0.0000E+000
 307.50  0.0000E+000
 308.00  0.0000E+000
 308.50  0.0000E+000
 309.00  0.0000E+000
 309.50  0.0000E+000
 310.00  0.0000E+000
 310.50  0.0000E+000
 311.00  0.0000E+000
 311.50  0.0000E+000
 312.00  0.0000E+000
 312.50  0.0000E+000
 313.00  0.0000E+000
 313.50  0.0000E+000
 314.00  0.0000E+000
 314.50  0.0000E+000
 315.00  0.0000E+000
 315.50  0.0000E+000
 316.00  0.0000E+000
 316.50  0.0000E+000
 317.00  0.0000E+000
 317.50  0.0000E+000
 318.00  0.0000E+000
 318.50  0.0000E+000
 319.00  0.0000E+000
 319.50  0.0000E+000
 320.00  0.0000E+000
 320.50  0.0000E+000
 321.00  0.0000E+000
 321.50  0.0000E+000
 322.00  0.0000E+000
 322.50  0.0000E+000
 323.00  0.0000E+000
 323.50  0.0000E+000
 324.00  0.0000E+000
 324.50  0.0000E+000
 325.00  0.0000E+000
 325.50  0.0000E+000
 326.00  0.0000E+000
 326.50  0.0000E+000
 327.00  0.0000E+000
 327.50  0.0000E+000
 328.00  0.0000E+000
 328.50  0.0000E+000
 329.00  0.0000E+000
 329.50  0.0000E+000
 330.00  0.0000E+000
 330.50  0.0000E+000
 331.00  0.0000E+000
 331.50  0.0000E+000
 332.00  0.0000E+000
 332.50  0.0000E+000
 333.00  0.0000E+000
 333.50  0.0000E+000
 334.00  0.0000E+000
 334.50  0.0000E+000
 335.00  0.0000E+000
 335.50  0.0000E+000
 336.00  0.0000E+000
 336.50  0.0000E+000
 337.00  0.0000E+000
 337.50  0.0000E+000
 338.00  0.0000E+000
 338.50  0.0000E+000
 339.00  0.0000E+000
 339.50  0.0000E+000
 340.00  0.0000E+000
 340.50  0.0000E+000
 341.00  0.0000E+000
 341.50  0.0000E+000
 342.00  0.0000E+000
 342.50  0.0000E+000
 343.00  0.0000E+000
 343.50  0.0000E+000
 344.00  0.0000E+000
 344.50  0.0000E+000
 345.00  0.0000E+000
 345.50  0.0000E+000
 346.00  0.0000E+000
 346.50  0.0000E+000
 347.00  0.0000E+000
 347.50  0.0000E+000
 348.00  0.0000E+000
 348.50  0.0000E+000
 349.00  0.0000E+000
 349.50  0.0000E+000
 350.00  0.0000E+000
 350.50  0.0000E+000
 351.00  0.0000E+000
 351.50  0.0000E+000
 352.00  0.0000E+000
 352.50  0.0000E+000
 353.00  0.0000E+000
 353.50  0.0000E+000
 354.00  0.0000E+000
 354.50  0.0000E+000
 355.00  0.0000E+000
 355.50  0.0000E+000
 356.00  0.0000E+000
 356.50  0.0000E+000
 357.00  0.0000E+000
 357.50  0.0000E+000
 358.00  0.0000E+000
 358.50  0.0000E+000
 359.00  0.0000E+000
 359.50  0.0000E+000
 360.00  0.0000E+000
 360.50  0.0000E+000
 361.00  0.0000E+000
 361.50  0.0000E+000
 362.00  0.0000E+000
 362.50  0.0000E+000
 363.00  0.0000E+000
 363.50  0.0000E+000
 364.00  0.0000E+000
 364.50  0.0000E+000
 365.00  0.0000E+000
 365.50  0.0000E+000
 366.00  0.0000E+000
 366.50  0.0000E+000
 367.00  0.0000E+000
 367.50  0.0000E+000
 368.00  0.0000E+000
 368.50  0.0000E+000
 369.00  0.0000E+000
 369.50  0.0000E+000
 370.00  0.0000E+000
 370.50  0.0000E+000
 371.00  0.0000E+000
 371.50  0.0000E+000
 372.00  0.0000E+000
 372.50  0.0000E+000
 373.00  0.0000E+000
 373.50  0.0000E+000
 374.00  0.0000E+000
 374.50  0.0000E+000
 375.00  0.0000E+000
 375.50  0.0000E+000
 376.00  0.0000E+000
 376.50  0.0000E+000
 377.00  0.0000E+000
 377.50  0.0000E+000
 378.00  0.0000E+000
 378.50  0.0000E+000
 379.00  0.0000E+000
 379.50  0.0000E+000
 380.00  2.0226E-005
 380.50  2.8038E-005
 381.00  3.0922E-005
 381.50  3.4406E-005
 382.00  3.7660E-005
 382.50  4.0969E-005
 383.00  4.4508E-005
 383.50  4.7821E-005
 384.00  5.1178E-005
 384.50  5.4201E-005
 385.00  5.7636E-005
 385.50  6.2854E-005
 386.00  6.8143E-005
 386.50  7.4526E-005
 387.00  8.1568E-005
 387.50  8.7851E-005
 388.00  9.4356E-005
 388.50  1.0145E-004
 389.00  1.0806E-004
 389.50  1.1414E-004
 390.00  1.2077E-004
 390.50  1.2990E-004
 391.00  1.3950E-004
 391.50  1.4903E-004
 392.00  1.5786E-004
 392.50  1.6728E-004
 393.00  1.7668E-004
 393.50  1.8429E-004
 394.00  1.9256E-004
 394.50  2.0158E-004
 395.00  2.1220E-004
 395.50  2.2479E-004
 396.00  2.4480E-004
 396.50  2.6693E-004
 397.00  2.8937E-004
 397.50  3.1422E-004
 398.00  3.4146E-004
 398.50  3.7211E-004
 399.00  4.0238E-004
 399.50  4.3033E-004
 400.00  4.6520E-004
 400.50  5.1684E-004
 401.00  5.8217E-004
 401.50  6.5455E-004
 402.00  7.3062E-004
 402.50  8.1402E-004
 403.00  9.0312E-004
 403.50  1.0042E-003
 404.00  1.1173E-003
 404.50  1.2358E-003
 405.00  1.3601E-003
 405.50  1.5043E-003
 406.00  1.6577E-003
 406.50  1.8137E-003
 407.00  1.9655E-003
 407.50  2.1217E-003
 408.00  2.2731E-003
 408.50  2.4201E-003
 409.00  2.5882E-003
 409.50  2.7789E-003
 410.00  2.9867E-003
 410.50  3.2386E-003
 411.00  3.5357E-003
 411.50  3.8663E-003
 412.00  4.1932E-003
 412.50  4.4999E-003
 413.00  4.8478E-003
 413.50  5.2215E-003
 414.00  5.5683E-003
 414.50  5.8815E-003
 415.00  6.2074E-003
 415.50  6.5729E-003
 416.00  6.9838E-003
 416.50  7.4289E-003
 417.00  7.8297E-003
 417.50  8.1745E-003
 418.00  8.5190E-003
 418.50  8.8788E-003
 419.00  9.2181E-003
 419.50  9.5913E-003
 420.00  9.9328E-003
 420.50  1.0250E-002
 421.00  1.0574E-002
 421.50  1.0974E-002
 422.00  1.1374E-002
 422.50  1.1762E-002
 423.00  1.2148E-002
 423.50  1.2588E-002
 424.00  1.3019E-002
 424.50  1.3447E-002
 425.00  1.3862E-002
 425.50  1.4229E-002
 426.00  1.4619E-002
 426.50  1.5010E-002
 427.00  1.5388E-002
 427.50  1.5692E-002
 428.00  1.6053E-002
 428.50  1.6470E-002
 429.00  1.6949E-002
 429.50  1.7438E-002
 430.00  1.7947E-002
 430.50  1.8520E-002
 431.00  1.9084E-002
 431.50  1.9638E-002
 432.00  2.0136E-002
 432.50  2.0540E-002
 433.00  2.0843E-002
 433.50  2.1198E-002
 434.00  2.1565E-002
 434.50  2.1938E-002
 435.00  2.2316E-002
 435.50  2.2657E-002
 436.00  2.2943E-002
 436.50  2.3336E-002
 437.00  2.3909E-002
 437.50  2.4604E-002
 438.00  2.5376E-002
 438.50  2.6255E-002
 439.00  2.7208E-002
 439.50  2.8234E-002
 440.00  2.9347E-002
 440.50  3.0472E-002
 441.00  3.1593E-002
 441.50  3.2723E-002
 442.00  3.3765E-002
 442.50  3.4709E-002
 443.00  3.5631E-002
 443.50  3.6551E-002
 444.00  3.7478E-002
 444.50  3.8361E-002
 445.00  3.9213E-002
 445.50  4.0102E-002
 446.00  4.1016E-002
 446.50  4.1955E-002
 447.00  4.3004E-002
 447.50  4.4160E-002
 448.00  4.5382E-002
 448.50  4.6688E-002
 449.00  4.8158E-002
 449.50  4.9749E-002
 450.00  5.1383E-002
 450.50  5.3101E-002
 451.00  5.4954E-002
 451.50  5.6875E-002
 452.00  5.8889E-002
 452.50  6.0783E-002
 453.00  6.2319E-002
 453.50  6.3656E-002
 454.00  6.4966E-002
 454.50  6.6328E-002
 455.00  6.7722E-002
 455.50  6.9475E-002
 456.00  7.0973E-002
 456.50  7.2395E-002
 457.00  7.3855E-002
 457.50  7.5499E-002
 458.00  7.7195E-002
 458.50  7.8955E-002
 459.00  8.0892E-002
 459.50  8.2868E-002
 460.00  8.5047E-002
 460.50  8.7557E-002
 461.00  9.0212E-002
 461.50  9.2730E-002
 462.00  9.5087E-002
 462.50  9.7364E-002
 463.00  9.9715E-002
 463.50  1.0216E-001
 464.00  1.0467E-001
 464.50  1.0716E-001
 465.00  1.0964E-001
 465.50  1.1238E-001
 466.00  1.1525E-001
 466.50  1.1819E-001
 467.00  1.2108E-001
 467.50  1.2368E-001
 468.00  1.2595E-001
 468.50  1.2827E-001
 469.00  1.3101E-001
 469.50  1.3410E-001
 470.00  1.3763E-001
 470.50  1.4174E-001
 471.00  1.4586E-001
 471.50  1.4979E-001
 472.00  1.5408E-001
 472.50  1.5803E-001
 473.00  1.6183E-001
 473.50  1.6537E-001
 474.00  1.6913E-001
 474.50  1.7303E-001
 475.00  1.7750E-001
 475.50  1.8276E-001
 476.00  1.8786E-001
 476.50  1.9300E-001
 477.00  1.9837E-001
 477.50  2.0385E-001
 478.00  2.0924E-001
 478.50  2.1476E-001
 479.00  2.2027E-001
 479.50  2.2542E-001
 480.00  2.3056E-001
 480.50  2.3608E-001
 481.00  2.4183E-001
 481.50  2.4753E-001
 482.00  2.5357E-001
 482.50  2.5954E-001
 483.00  2.6527E-001
 483.50  2.7088E-001
 484.00  2.7616E-001
 484.50  2.8102E-001
 485.00  2.8555E-001
 485.50  2.9135E-001
 486.00  2.9698E-001
 486.50  3.0256E-001
 487.00  3.0857E-001
 487.50  3.1524E-001
 488.00  3.2191E-001
 488.50  3.2855E-001
 489.00  3.3466E-001
 489.50  3.4062E-001
 490.00  3.4722E-001
 490.50  3.5517E-001
 491.00  3.6348E-001
 491.50  3.7194E-001
 492.00  3.8046E-001
 492.50  3.8888E-001
 493.00  3.9712E-001
 493.50  4.0536E-001
 494.00  4.1385E-001
 494.50  4.2260E-001
 495.00  4.3174E-001
 495.50  4.4229E-001
 496.00  4.5254E-001
 496.50  4.6302E-001
 497.00  4.7341E-001
 497.50  4.8413E-001
 498.00  4.9469E-001
 498.50  5.0528E-001
 499.00  5.1676E-001
 499.50  5.2861E-001
 500.00  5.4108E-001
 500.50  5.5636E-001
 501.00  5.7289E-001
 501.50  5.9038E-001
 502.00  6.0881E-001
 502.50  6.2797E-001
 503.00  6.4688E-001
 503.50  6.6547E-001
 504.00  6.8416E-001
 504.50  7.0412E-001
 505.00  7.2566E-001
 505.50  7.4809E-001
 506.00  7.6997E-001
 506.50  7.9209E-001
 507.00  8.1489E-001
 507.50  8.3758E-001
 508.00  8.6099E-001
 508.50  8.8467E-001
 509.00  9.0831E-001
 509.50  9.3158E-001
 510.00  9.5554E-001
 510.50  9.8118E-001
 511.00  1.0071E+000
 511.50  1.0331E+000
 512.00  1.0596E+000
 512.50  1.0870E+000
 513.00  1.1160E+000
 513.50  1.1459E+000
 514.00  1.1766E+000
 514.50  1.2074E+000
 515.00  1.2374E+000
 515.50  1.2674E+000
 516.00  1.2982E+000
 516.50  1.3304E+000
 517.00  1.3620E+000
 517.50  1.3926E+000
 518.00  1.4227E+000
 518.50  1.4535E+000
 519.00  1.4846E+000
 519.50  1.5161E+000
 520.00  1.5479E+000
 520.50  1.5771E+000
 521.00  1.6054E+000
 521.50  1.6341E+000
 522.00  1.6631E+000
 522.50  1.6912E+000
 523.00  1.7187E+000
 523.50  1.7454E+000
 524.00  1.7718E+000
 524.50  1.7975E+000
 525.00  1.8247E+000
 525.50  1.8494E+000
 526.00  1.8724E+000
 526.50  1.8956E+000
 527.00  1.9224E+000
 527.50  1.9507E+000
 528.00  1.9802E+000
 528.50  2.0093E+000
 529.00  2.0375E+000
 529.50  2.0660E+000
 530.00  2.0931E+000
 530.50  2.1171E+000
 531.00  2.1395E+000
 531.50  2.1614E+000
 532.00  2.1833E+000
 532.50  2.2062E+000
 533.00  2.2299E+000
 533.50  2.2525E+000
 534.00  2.2740E+000
 534.50  2.2953E+000
 535.00  2.3149E+000
 535.50  2.3319E+000
 536.00  2.3489E+000
 536.50  2.3682E+000
 537.00  2.3877E+000
 537.50  2.4063E+000
 538.00  2.4256E+000
 538.50  2.4464E+000
 539.00  2.4680E+000
 539.50  2.4906E+000
 540.00  2.5137E+000
 540.50  2.5354E+000
 541.00  2.5573E+000
 541.50  2.5799E+000
 542.00  2.6026E+000
 542.50  2.6242E+000
 543.00  2.6453E+000
 543.50  2.6658E+000
 544.00  2.6866E+000
 544.50  2.7085E+000
 545.00  2.7303E+000
 545.50  2.7513E+000
 546.00  2.7740E+000
 546.50  2.7980E+000
 547.00  2.8224E+000
 547.50  2.8463E+000
 548.00  2.8688E+000
 548.50  2.8912E+000
 549.00  2.9137E+000
 549.50  2.9373E+000
 550.00  2.9597E+000
 550.50  2.9809E+000
 551.00  3.0023E+000
 551.50  3.0233E+000
 552.00  3.0435E+000
 552.50  3.0657E+000
 553.00  3.0899E+000
 553.50  3.1133E+000
 554.00  3.1328E+000
 554.50  3.1498E+000
 555.00  3.1645E+000
 555.50  3.1755E+000
 556.00  3.1878E+000
 556.50  3.2007E+000
 557.00  3.2150E+000
 557.50  3.2305E+000
 558.00  3.2462E+000
 558.50  3.2606E+000
 559.00  3.2750E+000
 559.50  3.2906E+000
 560.00  3.3052E+000
 560.50  3.3172E+000
 561.00  3.3283E+000
 561.50  3.3383E+000
 562.00  3.3457E+000
 562.50  3.3529E+000
 563.00  3.3580E+000
 563.50  3.3640E+000
 564.00  3.3695E+000
 564.50  3.3772E+000
 565.00  3.3857E+000
 565.50  3.3945E+000
 566.00  3.4025E+000
 566.50  3.4100E+000
 567.00  3.4188E+000
 567.50  3.4274E+000
 568.00  3.4340E+000
 568.50  3.4403E+000
 569.00  3.4471E+000
 569.50  3.4556E+000
 570.00  3.4641E+000
 570.50  3.4683E+000
 571.00  3.4712E+000
 571.50  3.4743E+000
 572.00  3.4777E+000
 572.50  3.4810E+000
 573.00  3.4841E+000
 573.50  3.4868E+000
 574.00  3.4895E+000
 574.50  3.4908E+000
 575.00  3.4914E+000
 575.50  3.4883E+000
 576.00  3.4859E+000
 576.50  3.4839E+000
 577.00  3.4819E+000
 577.50  3.4795E+000
 578.00  3.4778E+000
 578.50  3.4760E+000
 579.00  3.4738E+000
 579.50  3.4700E+000
 580.00  3.4645E+000
 580.50  3.4576E+000
 581.00  3.4516E+000
 581.50  3.4457E+000
 582.00  3.4379E+000
 582.50  3.4288E+000
 583.00  3.4184E+000
 583.50  3.4072E+000
 584.00  3.3951E+000
 584.50  3.3820E+000
 585.00  3.3684E+000
 585.50  3.3536E+000
 586.00  3.3388E+000
 586.50  3.3240E+000
 587.00  3.3115E+000
 587.50  3.3005E+000
 588.00  3.2901E+000
 588.50  3.2815E+000
 589.00  3.2743E+000
 589.50  3.2678E+000
 590.00  3.2606E+000
 590.50  3.2511E+000
 591.00  3.2389E+000
 591.50  3.2272E+000
 592.00  3.2150E+000
 592.50  3.2032E+000
 593.00  3.1910E+000
 593.50  3.1778E+000
 594.00  3.1655E+000
 594.50  3.1538E+000
 595.00  3.1408E+000
 595.50  3.1259E+000
 596.00  3.1104E+000
 596.50  3.0952E+000
 597.00  3.0814E+000
 597.50  3.0675E+000
 598.00  3.0549E+000
 598.50  3.0424E+000
 599.00  3.0296E+000
 599.50  3.0175E+000
 600.00  3.0057E+000
 600.50  2.9935E+000
 601.00  2.9816E+000
 601.50  2.9665E+000
 602.00  2.9487E+000
 602.50  2.9296E+000
 603.00  2.9115E+000
 603.50  2.8922E+000
 604.00  2.8711E+000
 604.50  2.8493E+000
 605.00  2.8270E+000
 605.50  2.8052E+000
 606.00  2.7853E+000
 606.50  2.7637E+000
 607.00  2.7422E+000
 607.50  2.7214E+000
 608.00  2.7009E+000
 608.50  2.6804E+000
 609.00  2.6593E+000
 609.50  2.6384E+000
 610.00  2.6176E+000
 610.50  2.5960E+000
 611.00  2.5733E+000
 611.50  2.5496E+000
 612.00  2.5257E+000
 612.50  2.5026E+000
 613.00  2.4789E+000
 613.50  2.4551E+000
 614.00  2.4312E+000
 614.50  2.4063E+000
 615.00  2.3808E+000
 615.50  2.3545E+000
 616.00  2.3274E+000
 616.50  2.3011E+000
 617.00  2.2740E+000
 617.50  2.2452E+000
 618.00  2.2158E+000
 618.50  2.1878E+000
 619.00  2.1604E+000
 619.50  2.1321E+000
 620.00  2.1023E+000
 620.50  2.0706E+000
 621.00  2.0379E+000
 621.50  2.0061E+000
 622.00  1.9747E+000
 622.50  1.9437E+000
 623.00  1.9132E+000
 623.50  1.8830E+000
 624.00  1.8528E+000
 624.50  1.8228E+000
 625.00  1.7923E+000
 625.50  1.7627E+000
 626.00  1.7329E+000
 626.50  1.7033E+000
 627.00  1.6732E+000
 627.50  1.6434E+000
 628.00  1.6141E+000
 628.50  1.5841E+000
 629.00  1.5537E+000
 629.50  1.5234E+000
 630.00  1.4932E+000
 630.50  1.4677E+000
 631.00  1.4433E+000
 631.50  1.4188E+000
 632.00  1.3945E+000
 632.50  1.3705E+000
 633.00  1.3463E+000
 633.50  1.3213E+000
 634.00  1.2960E+000
 634.50  1.2700E+000
 635.00  1.2449E+000
 635.50  1.2223E+000
 636.00  1.2007E+000
 636.50  1.1797E+000
 637.00  1.1588E+000
 637.50  1.1374E+000
 638.00  1.1158E+000
 638.50  1.0937E+000
 639.00  1.0709E+000
 639.50  1.0478E+000
 640.00  1.0255E+000
 640.50  1.0051E+000
 641.00  9.8527E-001
 641.50  9.6513E-001
 642.00  9.4547E-001
 642.50  9.2602E-001
 643.00  9.0651E-001
 643.50  8.8721E-001
 644.00  8.6760E-001
 644.50  8.4794E-001
 645.00  8.2852E-001
 645.50  8.1086E-001
 646.00  7.9395E-001
 646.50  7.7696E-001
 647.00  7.6023E-001
 647.50  7.4348E-001
 648.00  7.2653E-001
 648.50  7.0932E-001
 649.00  6.9202E-001
 649.50  6.7456E-001
 650.00  6.5695E-001
 650.50  6.4208E-001
 651.00  6.2716E-001
 651.50  6.1221E-001
 652.00  5.9738E-001
 652.50  5.8264E-001
 653.00  5.6824E-001
 653.50  5.5438E-001
 654.00  5.4072E-001
 654.50  5.2666E-001
 655.00  5.1297E-001
 655.50  5.0103E-001
 656.00  4.8954E-001
 656.50  4.7803E-001
 657.00  4.6645E-001
 657.50  4.5465E-001
 658.00  4.4275E-001
 658.50  4.3071E-001
 659.00  4.1855E-001
 659.50  4.0635E-001
 660.00  3.9471E-001
 660.50  3.8454E-001
 661.00  3.7485E-001
 661.50  3.6525E-001
 662.00  3.5567E-001
 662.50  3.4619E-001
 663.00  3.3678E-001
 663.50  3.2718E-001
 664.00  3.1740E-001
 664.50  3.0739E-001
 665.00  2.9729E-001
 665.50  2.8948E-001
 666.00  2.8167E-001
 666.50  2.7391E-001
 667.00  2.6620E-001
 667.50  2.5837E-001
 668.00  2.5033E-001
 668.50  2.4223E-001
 669.00  2.3417E-001
 669.50  2.2602E-001
 670.00  2.1833E-001
 670.50  2.1204E-001
 671.00  2.0629E-001
 671.50  2.0061E-001
 672.00  1.9494E-001
 672.50  1.8927E-001
 673.00  1.8355E-001
 673.50  1.7783E-001
 674.00  1.7221E-001
 674.50  1.6658E-001
 675.00  1.6110E-001
 675.50  1.5682E-001
 676.00  1.5263E-001
 676.50  1.4831E-001
 677.00  1.4394E-001
 677.50  1.3959E-001
 678.00  1.3524E-001
 678.50  1.3090E-001
 679.00  1.2658E-001
 679.50  1.2223E-001
 680.00  1.1806E-001
 680.50  1.1442E-001
 681.00  1.1090E-001
 681.50  1.0741E-001
 682.00  1.0392E-001
 682.50  1.0038E-001
 683.00  9.6817E-002
 683.50  9.3239E-002
 684.00  8.9667E-002
 684.50  8.6080E-002
 685.00  8.2707E-002
 685.50  7.9931E-002
 686.00  7.7273E-002
 686.50  7.4640E-002
 687.00  7.2017E-002
 687.50  6.9399E-002
 688.00  6.6806E-002
 688.50  6.4251E-002
 689.00  6.1736E-002
 689.50  5.9232E-002
 690.00  5.6834E-002
 690.50  5.4988E-002
 691.00  5.3255E-002
 691.50  5.1494E-002
 692.00  4.9706E-002
 692.50  4.7918E-002
 693.00  4.6195E-002
 693.50  4.4508E-002
 694.00  4.2810E-002
 694.50  4.1112E-002
 695.00  3.9497E-002
 695.50  3.8270E-002
 696.00  3.7122E-002
 696.50  3.5998E-002
 697.00  3.4906E-002
 697.50  3.3820E-002
 698.00  3.2729E-002
 698.50  3.1648E-002
 699.00  3.0556E-002
 699.50  2.9463E-002
 700.00  2.8441E-002
 700.50  2.7592E-002
 701.00  2.6810E-002
 701.50  2.6031E-002
 702.00  2.5268E-002
 702.50  2.4507E-002
 703.00  2.3733E-002
 703.50  2.2950E-002
 704.00  2.2169E-002
 704.50  2.1368E-002
 705.00  2.0557E-002
 705.50  1.9991E-002
 706.00  1.9449E-002
 706.50  1.8921E-002
 707.00  1.8399E-002
 707.50  1.7861E-002
 708.00  1.7313E-002
 708.50  1.6755E-002
 709.00  1.6186E-002
 709.50  1.5626E-002
 710.00  1.5098E-002
 710.50  1.4661E-002
 711.00  1.4248E-002
 711.50  1.3829E-002
 712.00  1.3407E-002
 712.50  1.2983E-002
 713.00  1.2555E-002
 713.50  1.2126E-002
 714.00  1.1693E-002
 714.50  1.1262E-002
 715.00  1.0853E-002
 715.50  1.0526E-002
 716.00  1.0220E-002
 716.50  9.9139E-003
 717.00  9.6136E-003
 717.50  9.3146E-003
 718.00  9.0211E-003
 718.50  8.7295E-003
 719.00  8.4345E-003
 719.50  8.1409E-003
 720.00  7.8468E-003
 720.50  7.6335E-003
 721.00  7.4264E-003
 721.50  7.2180E-003
 722.00  7.0089E-003
 722.50  6.7954E-003
 723.00  6.5784E-003
 723.50  6.3626E-003
 724.00  6.1498E-003
 724.50  5.9372E-003
 725.00  5.7320E-003
 725.50  5.5758E-003
 726.00  5.4217E-003
 726.50  5.2681E-003
 727.00  5.1162E-003
 727.50  4.9588E-003
 728.00  4.7969E-003
 728.50  4.6367E-003
 729.00  4.4772E-003
 729.50  4.3191E-003
 730.00  4.1702E-003
 730.50  4.0494E-003
 731.00  3.9367E-003
 731.50  3.8205E-003
 732.00  3.7023E-003
 732.50  3.5820E-003
 733.00  3.4622E-003
 733.50  3.3408E-003
 734.00  3.2163E-003
 734.50  3.0948E-003
 735.00  2.9835E-003
 735.50  2.8952E-003
 736.00  2.8140E-003
 736.50  2.7307E-003
 737.00  2.6466E-003
 737.50  2.5613E-003
 738.00  2.4736E-003
 738.50  2.3851E-003
 739.00  2.2968E-003
 739.50  2.2083E-003
 740.00  2.1261E-003
 740.50  2.0629E-003
 741.00  2.0038E-003
 741.50  1.9443E-003
 742.00  1.8849E-003
 742.50  1.8236E-003
 743.00  1.7616E-003
 743.50  1.6987E-003
 744.00  1.6363E-003
 744.50  1.5733E-003
 745.00  1.5110E-003
 745.50  1.4660E-003
 746.00  1.4240E-003
 746.50  1.3827E-003
 747.00  1.3412E-003
 747.50  1.2995E-003
 748.00  1.2574E-003
 748.50  1.2149E-003
 749.00  1.1716E-003
 749.50  1.1281E-003
 750.00  1.0854E-003
 750.50  1.0555E-003
 751.00  1.0260E-003
 751.50  9.9607E-004
 752.00  9.6543E-004
 752.50  9.3475E-004
 753.00  9.0401E-004
 753.50  8.7313E-004
 754.00  8.4267E-004
 754.50  8.1215E-004
 755.00  7.8206E-004
 755.50  7.5993E-004
 756.00  7.3725E-004
 756.50  7.1469E-004
 757.00  6.9211E-004
 757.50  6.6919E-004
 758.00  6.4634E-004
 758.50  6.2397E-004
 759.00  6.0169E-004
 759.50  5.7917E-004
 760.00  5.5670E-004
 760.50  5.4010E-004
 761.00  5.2368E-004
 761.50  5.0751E-004
 762.00  4.9135E-004
 762.50  4.7516E-004
 763.00  4.5909E-004
 763.50  4.4302E-004
 764.00  4.2690E-004
 764.50  4.1071E-004
 765.00  3.9475E-004
 765.50  3.8274E-004
 766.00  3.7119E-004
 766.50  3.5977E-004
 767.00  3.4836E-004
 767.50  3.3686E-004
 768.00  3.2545E-004
 768.50  3.1419E-004
 769.00  3.0306E-004
 769.50  2.9204E-004
 770.00  2.8129E-004
 770.50  2.7297E-004
 771.00  2.6504E-004
 771.50  2.5711E-004
 772.00  2.4906E-004
 772.50  2.4099E-004
 773.00  2.3280E-004
 773.50  2.2459E-004
 774.00  2.1638E-004
 774.50  2.0814E-004
 775.00  2.0047E-004
 775.50  1.9455E-004
 776.00  1.8914E-004
 776.50  1.8359E-004
 777.00  1.7807E-004
 777.50  1.7251E-004
 778.00  1.6684E-004
 778.50  1.6109E-004
 779.00  1.5541E-004
 779.50  1.4974E-004
 780.00  8.0951E-005
 780.50  0.0000E+000
 781.00  0.0000E+000
 781.50  0.0000E+000
 782.00  0.0000E+000
 782.50  0.0000E+000
 783.00  0.0000E+000
 783.50  0.0000E+000
 784.00  0.0000E+000
 784.50  0.0000E+000
 785.00  0.0000E+000
 785.50  0.0000E+000
 786.00  0.0000E+000
 786.50  0.0000E+000
 787.00  0.0000E+000
 787.50  0.0000E+000
 788.00  0.0000E+000
 788.50  0.0000E+000
 789.00  0.0000E+000
 789.50  0.0000E+000
 790.00  0.0000E+000
 790.50  0.0000E+000
 791.00  0.0000E+000
 791.50  0.0000E+000
 792.00  0.0000E+000
 792.50  0.0000E+000
 793.00  0.0000E+000
 793.50  0.0000E+000
 794.00  0.0000E+000
 794.50  0.0000E+000
 795.00  0.0000E+000
 795.50  0.0000E+000
 796.00  0.0000E+000
 796.50  0.0000E+000
 797.00  0.0000E+000
 797.50  0.0000E+000
 798.00  0.0000E+000
 798.50  0.0000E+000
 799.00  0.0000E+000
 799.50  0.0000E+000
 800.00  0.0000E+000
 800.50  0.0000E+000
 801.00  0.0000E+000
 801.50  0.0000E+000
 802.00  0.0000E+000
 802.50  0.0000E+000
 803.00  0.0000E+000
 803.50  0.0000E+000
 804.00  0.0000E+000
 804.50  0.0000E+000
 805.00  0.0000E+000
 805.50  0.0000E+000
 806.00  0.0000E+000
 806.50  0.0000E+000
 807.00  0.0000E+000
 807.50  0.0000E+000
 808.00  0.0000E+000
 808.50  0.0000E+000
 809.00  0.0000E+000
 809.50  0.0000E+000
 810.00  0.0000E+000
 810.50  0.0000E+000
 811.00  0.0000E+000
 811.50  0.0000E+000
 812.00  0.0000E+000
 812.50  0.0000E+000
 813.00  0.0000E+000
 813.50  0.0000E+000
 814.00  0.0000E+000
 814.50  0.0000E+000
 815.00  0.0000E+000
 815.50  0.0000E+000
 816.00  0.0000E+000
 816.50  0.0000E+000
 817.00  0.0000E+000
 817.50  0.0000E+000
 818.00  0.0000E+000
 818.50  0.0000E+000
 819.00  0.0000E+000
 819.50  0.0000E+000
 820.00  0.0000E+000
 820.50  0.0000E+000
 821.00  0.0000E+000
 821.50  0.0000E+000
 822.00  0.0000E+000
 822.50  0.0000E+000
 823.00  0.0000E+000
 823.50  0.0000E+000
 824.00  0.0000E+000
 824.50  0.0000E+000
 825.00  0.0000E+000
 825.50  0.0000E+000
 826.00  0.0000E+000
 826.50  0.0000E+000
 827.00  0.0000E+000
 827.50  0.0000E+000
 828.00  0.0000E+000
 828.50  0.0000E+000
 829.00  0.0000E+000
 829.50  0.0000E+000
 830.00  0.0000E+000
 830.50  0.0000E+000
 831.00  0.0000E+000
 831.50  0.0000E+000
 832.00  0.0000E+000
 832.50  0.0000E+000
 833.00  0.0000E+000
 833.50  0.0000E+000
 834.00  0.0000E+000
 834.50  0.0000E+000
 835.00  0.0000E+000
 835.50  0.0000E+000
 836.00  0.0000E+000
 836.50  0.0000E+000
 837.00  0.0000E+000
 837.50  0.0000E+000
 838.00  0.0000E+000
 838.50  0.0000E+000
 839.00  0.0000E+000
 839.50  0.0000E+000
 840.00  0.0000E+000
 840.50  0.0000E+000
 841.00  0.0000E+000
 841.50  0.0000E+000
 842.00  0.0000E+000
 842.50  0.0000E+000
 843.00  0.0000E+000
 843.50  0.0000E+000
 844.00  0.0000E+000
 844.50  0.0000E+000
 845.00  0.0000E+000
 845.50  0.0000E+000
 846.00  0.0000E+000
 846.50  0.0000E+000
 847.00  0.0000E+000
 847.50  0.0000E+000
 848.00  0.0000E+000
 848.50  0.0000E+000
 849.00  0.0000E+000
 849.50  0.0000E+000
 850.00  0.0000E+000
 850.50  0.0000E+000
 851.00  0.0000E+000
 851.50  0.0000E+000
 852.00  0.0000E+000
 852.50  0.0000E+000
 853.00  0.0000E+000
 853.50  0.0000E+000
 854.00  0.0000E+000
 854.50  0.0000E+000
 855.00  0.0000E+000
 855.50  0.0000E+000
 856.00  0.0000E+000
 856.50  0.0000E+000
 857.00  0.0000E+000
 857.50  0.0000E+000
 858.00  0.0000E+000
 858.50  0.0000E+000
 859.00  0.0000E+000
 859.50  0.0000E+000
 860.00  0.0000E+000
 860.50  0.0000E+000
 861.00  0.0000E+000
 861.50  0.0000E+000
 862.00  0.0000E+000
 862.50  0.0000E+000
 863.00  0.0000E+000
 863.50  0.0000E+000
 864.00  0.0000E+000
 864.50  0.0000E+000
 865.00  0.0000E+000
 865.50  0.0000E+000
 866.00  0.0000E+000
 866.50  0.0000E+000
 867.00  0.0000E+000
 867.50  0.0000E+000
 868.00  0.0000E+000
 868.50  0.0000E+000
 869.00  0.0000E+000
 869.50  0.0000E+000
 870.00  0.0000E+000
 870.50  0.0000E+000
 871.00  0.0000E+000
 871.50  0.0000E+000
 872.00  0.0000E+000
 872.50  0.0000E+000
 873.00  0.0000E+000
 873.50  0.0000E+000
 874.00  0.0000E+000
 874.50  0.0000E+000
 875.00  0.0000E+000
 875.50  0.0000E+000
 876.00  0.0000E+000
 876.50  0.0000E+000
 877.00  0.0000E+000
 877.50  0.0000E+000
 878.00  0.0000E+000
 878.50  0.0000E+000
 879.00  0.0000E+000
 879.50  0.0000E+000
 880.00  0.0000E+000
 880.50  0.0000E+000
 881.00  0.0000E+000
 881.50  0.0000E+000
 882.00  0.0000E+000
 882.50  0.0000E+000
 883.00  0.0000E+000
 883.50  0.0000E+000
 884.00  0.0000E+000
 884.50  0.0000E+000
 885.00  0.0000E+000
 885.50  0.0000E+000
 886.00  0.0000E+000
 886.50  0.0000E+000
 887.00  0.0000E+000
 887.50  0.0000E+000
 888.00  0.0000E+000
 888.50  0.0000E+000
 889.00  0.0000E+000
 889.50  0.0000E+000
 890.00  0.0000E+000
 890.50  0.0000E+000
 891.00  0.0000E+000
 891.50  0.0000E+000
 892.00  0.0000E+000
 892.50  0.0000E+000
 893.00  0.0000E+000
 893.50  0.0000E+000
 894.00  0.0000E+000
 894.50  0.0000E+000
 895.00  0.0000E+000
 895.50  0.0000E+000
 896.00  0.0000E+000
 896.50  0.0000E+000
 897.00  0.0000E+000
 897.50  0.0000E+000
 898.00  0.0000E+000
 898.50  0.0000E+000
 899.00  0.0000E+000
 899.50  0.0000E+000
 900.00  0.0000E+000
 900.50  0.0000E+000
 901.00  0.0000E+000
 901.50  0.0000E+000
 902.00  0.0000E+000
 902.50  0.0000E+000
 903.00  0.0000E+000
 903.50  0.0000E+000
 904.00  0.0000E+000
 904.50  0.0000E+000
 905.00  0.0000E+000
 905.50  0.0000E+000
 906.00  0.0000E+000
 906.50  0.0000E+000
 907.00  0.0000E+000
 907.50  0.0000E+000
 908.00  0.0000E+000
 908.50  0.0000E+000
 909.00  0.0000E+000
 909.50  0.0000E+000
 910.00  0.0000E+000
 910.50  0.0000E+000
 911.00  0.0000E+000
 911.50  0.0000E+000
 912.00  0.0000E+000
 912.50  0.0000E+000
 913.00  0.0000E+000
 913.50  0.0000E+000
 914.00  0.0000E+000
 914.50  0.0000E+000
 915.00  0.0000E+000
 915.50  0.0000E+000
 916.00  0.0000E+000
 916.50  0.0000E+000
 917.00  0.0000E+000
 917.50  0.0000E+000
 918.00  0.0000E+000
 918.50  0.0000E+000
 919.00  0.0000E+000
 919.50  0.0000E+000
 920.00  0.0000E+000
 920.50  0.0000E+000
 921.00  0.0000E+000
 921.50  0.0000E+000
 922.00  0.0000E+000
 922.50  0.0000E+000
 923.00  0.0000E+000
 923.50  0.0000E+000
 924.00  0.0000E+000
 924.50  0.0000E+000
 925.00  0.0000E+000
 925.50  0.0000E+000
 926.00  0.0000E+000
 926.50  0.0000E+000
 927.00  0.0000E+000
 927.50  0.0000E+000
 928.00  0.0000E+000
 928.50  0.0000E+000
 929.00  0.0000E+000
 929.50  0.0000E+000
 930.00  0.0000E+000
 930.50  0.0000E+000
 931.00  0.0000E+000
 931.50  0.0000E+000
 932.00  0.0000E+000
 932.50  0.0000E+000
 933.00  0.0000E+000
 933.50  0.0000E+000
 934.00  0.0000E+000
 934.50  0.0000E+000
 935.00  0.0000E+000
 935.50  0.0000E+000
 936.00  0.0000E+000
 936.50  0.0000E+000
 937.00  0.0000E+000
 937.50  0.0000E+000
 938.00  0.0000E+000
 938.50  0.0000E+000
 939.00  0.0000E+000
 939.50  0.0000E+000
 940.00  0.0000E+000
 940.50  0.0000E+000
 941.00  0.0000E+000
 941.50  0.0000E+000
 942.00  0.0000E+000
 942.50  0.0000E+000
 943.00  0.0000E+000
 943.50  0.0000E+000
 944.00  0.0000E+000
 944.50  0.0000E+000
 945.00  0.0000E+000
 945.50  0.0000E+000
 946.00  0.0000E+000
 946.50  0.0000E+000
 947.00  0.0000E+000
 947.50  0.0000E+000
 948.00  0.0000E+000
 948.50  0.0000E+000
 949.00  0.0000E+000
 949.50  0.0000E+000
 950.00  0.0000E+000
 950.50  0.0000E+000
 951.00  0.0000E+000
 951.50  0.0000E+000
 952.00  0.0000E+000
 952.50  0.0000E+000
 953.00  0.0000E+000
 953.50  0.0000E+000
 954.00  0.0000E+000
 954.50  0.0000E+000
 955.00  0.0000E+000
 955.50  0.0000E+000
 956.00  0.0000E+000
 956.50  0.0000E+000
 957.00  0.0000E+000
 957.50  0.0000E+000
 958.00  0.0000E+000
 958.50  0.0000E+000
 959.00  0.0000E+000
 959.50  0.0000E+000
 960.00  0.0000E+000
 960.50  0.0000E+000
 961.00  0.0000E+000
 961.50  0.0000E+000
 962.00  0.0000E+000
 962.50  0.0000E+000
 963.00  0.0000E+000
 963.50  0.0000E+000
 964.00  0.0000E+000
 964.50  0.0000E+000
 965.00  0.0000E+000
 965.50  0.0000E+000
 966.00  0.0000E+000
 966.50  0.0000E+000
 967.00  0.0000E+000
 967.50  0.0000E+000
 968.00  0.0000E+000
 968.50  0.0000E+000
 969.00  0.0000E+000
 969.50  0.0000E+000
 970.00  0.0000E+000
 970.50  0.0000E+000
 971.00  0.0000E+000
 971.50  0.0000E+000
 972.00  0.0000E+000
 972.50  0.0000E+000
 973.00  0.0000E+000
 973.50  0.0000E+000
 974.00  0.0000E+000
 974.50  0.0000E+000
 975.00  0.0000E+000
 975.50  0.0000E+000
 976.00  0.0000E+000
 976.50  0.0000E+000
 977.00  0.0000E+000
 977.50  0.0000E+000
 978.00  0.0000E+000
 978.50  0.0000E+000
 979.00  0.0000E+000
 979.50  0.0000E+000
 980.00  0.0000E+000
 980.50  0.0000E+000
 981.00  0.0000E+000
 981.50  0.0000E+000
 982.00  0.0000E+000
 982.50  0.0000E+000
 983.00  0.0000E+000
 983.50  0.0000E+000
 984.00  0.0000E+000
 984.50  0.0000E+000
 985.00  0.0000E+000
 985.50  0.0000E+000
 986.00  0.0000E+000
 986.50  0.0000E+000
 987.00  0.0000E+000
 987.50  0.0000E+000
 988.00  0.0000E+000
 988.50  0.0000E+000
 989.00  0.0000E+000
 989.50  0.0000E+000
 990.00  0.0000E+000
 990.50  0.0000E+000
 991.00  0.0000E+000
 991.50  0.0000E+000
 992.00  0.0000E+000
 992.50  0.0000E+000
 993.00  0.0000E+000
 993.50  0.0000E+000
 994.00  0.0000E+000
 994.50  0.0000E+000
 995.00  0.0000E+000
 995.50  0.0000E+000
 996.00  0.0000E+000
 996.50  0.0000E+000
 997.00  0.0000E+000
 997.50  0.0000E+000
 998.00  0.0000E+000
 998.50  0.0000E+000
 999.00  0.0000E+000
 999.50  0.0000E+000
1000.00  0.0000E+000
1000.50  0.0000E+000
1001.00  0.0000E+000
1001.50  0.0000E+000
1002.00  0.0000E+000
1002.50  0.0000E+000
1003.00  0.0000E+000
1003.50  0.0000E+000
1004.00  0.0000E+000
1004.50  0.0000E+000
1005.00  0.0000E+000
1005.50  0.0000E+000
1006.00  0.0000E+000
1006.50  0.0000E+000
1007.00  0.0000E+000
1007.50  0.0000E+000
1008.00  0.0000E+000
1008.50  0.0000E+000
1009.00  0.0000E+000
1009.50  0.0000E+000
1010.00  0.0000E+000
1010.50  0.0000E+000
1011.00  0.0000E+000
1011.50  0.0000E+000
1012.00  0.0000E+000
1012.50  0.0000E+000
1013.00  0.0000E+000
1013.50  0.0000E+000
1014.00  0.0000E+000
1014.50  0.0000E+000
1015.00  0.0000E+000
1015.50  0.0000E+000
1016.00  0.0000E+000
1016.50  0.0000E+000
1017.00  0.0000E+000
1017.50  0.0000E+000
1018.00  0.0000E+000
1018.50  0.0000E+000
1019.00  0.0000E+000
1019.50  0.0000E+000
1020.00  0.0000E+000
1020.50  0.0000E+000
1021.00  0.0000E+000
1021.50  0.0000E+000
1022.00  0.0000E+000
1022.50  0.0000E+000
1023.00  0.0000E+000
1023.50  0.0000E+000
1024.00  0.0000E+000
1024.50  0.0000E+000
1025.00  0.0000E+000
1025.50  0.0000E+000
1026.00  0.0000E+000
1026.50  0.0000E+000
1027.00  0.0000E+000
1027.50  0.0000E+000
1028.00  0.0000E+000
1028.50  0.0000E+000
1029.00  0.0000E+000
1029.50  0.0000E+000
1030.00  0.0000E+000
1030.50  0.0000E+000
1031.00  0.0000E+000
1031.50  0.0000E+000
1032.00  0.0000E+000
1032.50  0.0000E+000
1033.00  0.0000E+000
1033.50  0.0000E+000
1034.00  0.0000E+000
1034.50  0.0000E+000
1035.00  0.0000E+000
1035.50  0.0000E+000
1036.00  0.0000E+000
1036.50  0.0000E+000
1037.00  0.0000E+000
1037.50  0.0000E+000
1038.00  0.0000E+000
1038.50  0.0000E+000
1039.00  0.0000E+000
1039.50  0.0000E+000
1040.00  0.0000E+000
1040.50  0.0000E+000
1041.00  0.0000E+000
1041.50  0.0000E+000
1042.00  0.0000E+000
1042.50  0.0000E+000
1043.00  0.0000E+000
1043.50  0.0000E+000
1044.00  0.0000E+000
1044.50  0.0000E+000
1045.00  0.0000E+000
1045.50  0.0000E+000
1046.00  0.0000E+000
1046.50  0.0000E+000
1047.00  0.0000E+000
1047.50  0.0000E+000
1048.00  0.0000E+000
1048.50  0.0000E+000
1049.00  0.0000E+000
1049.50  0.0000E+000
1050.00  0.0000E+000
1050.50  0.0000E+000
1051.00  0.0000E+000
1051.50  0.0000E+000
1052.00  0.0000E+000
1052.50  0.0000E+000
1053.00  0.0000E+000
1053.50  0.0000E+000
1054.00  0.0000E+000
1054.50  0.0000E+000
1055.00  0.0000E+000
1055.50  0.0000E+000
1056.00  0.0000E+000
1056.50  0.0000E+000
1057.00  0.0000E+000
1057.50  0.0000E+000
1058.00  0.0000E+000
1058.50  0.0000E+000
1059.00  0.0000E+000
1059.50  0.0000E+000
1060.00  0.0000E+000
1060.50  0.0000E+000
1061.00  0.0000E+000
1061.50  0.0000E+000
1062.00  0.0000E+000
1062.50  0.0000E+000
1063.00  0.0000E+000
1063.50  0.0000E+000
1064.00  0.0000E+000
1064.50  0.0000E+000
1065.00  0.0000E+000
1065.50  0.0000E+000
1066.00  0.0000E+000
1066.50  0.0000E+000
1067.00  0.0000E+000
1067.50  0.0000E+000
1068.00  0.0000E+000
1068.50  0.0000E+000
1069.00  0.0000E+000
1069.50  0.0000E+000
1070.00  0.0000E+000
1070.50  0.0000E+000
1071.00  0.0000E+000
1071.50  0.0000E+000
1072.00  0.0000E+000
1072.50  0.0000E+000
1073.00  0.0000E+000
1073.50  0.0000E+000
1074.00  0.0000E+000
1074.50  0.0000E+000
1075.00  0.0000E+000
1075.50  0.0000E+000
1076.00  0.0000E+000
1076.50  0.0000E+000
1077.00  0.0000E+000
1077.50  0.0000E+000
1078.00  0.0000E+000
1078.50  0.0000E+000
1079.00  0.0000E+000
1079.50  0.0000E+000
1080.00  0.0000E+000
1080.50  0.0000E+000
1081.00  0.0000E+000
1081.50  0.0000E+000
1082.00  0.0000E+000
1082.50  0.0000E+000
1083.00  0.0000E+000
1083.50  0.0000E+000
1084.00  0.0000E+000
1084.50  0.0000E+000
1085.00  0.0000E+000
1085.50  0.0000E+000
1086.00  0.0000E+000
1086.50  0.0000E+000
1087.00  0.0000E+000
1087.50  0.0000E+000
1088.00  0.0000E+000
1088.50  0.0000E+000
1089.00  0.0000E+000
1089.50  0.0000E+000
1090.00  0.0000E+000
1090.50  0.0000E+000
1091.00  0.0000E+000
1091.50  0.0000E+000
1092.00  0.0000E+000
1092.50  0.0000E+000
1093.00  0.0000E+000
1093.50  0.0000E+000
1094.00  0.0000E+000
1094.50  0.0000E+000
1095.00  0.0000E+000
1095.50  0.0000E+000
1096.00  0.0000E+000
1096.50  0.0000E+000
1097.00  0.0000E+000
1097.50  0.0000E+000
1098.00  0.0000E+000
1098.50  0.0000E+000
1099.00  0.0000E+000
1099.50  0.0000E+000
1100.00  0.0000E+000
1100.50  0.0000E+000
: 7
